! S21 sweep bladeRF - TX0=38 db | RX0=50 db | RX1=50 db - 2025-12-11T11:58:31
# Frequency [MHz], |S21| [db], |Mag_meas| [db], Phase [deg]
5.100000e+09 -24.271742 105.059210 34.906839
5.100250e+09 -23.779941 104.982208 35.941935
5.100500e+09 -23.891539 104.830708 36.803877
5.100750e+09 -24.043601 105.092714 35.455357
5.101000e+09 -23.405690 105.193301 35.907890
5.101250e+09 -23.739953 105.071014 37.834367
5.101500e+09 -23.839578 104.975672 37.876658
5.101750e+09 -24.005800 105.033558 32.498016
5.102000e+09 -23.768510 104.738278 36.370014
5.102250e+09 -23.614013 104.693914 36.159105
5.102500e+09 -23.595512 104.964081 34.382651
5.102750e+09 -24.189900 105.107632 33.905362
5.103000e+09 -24.180156 104.961161 34.372799
5.103250e+09 -23.567055 105.039476 33.369095
5.103500e+09 -24.345092 104.835373 34.983783
5.103750e+09 -24.301934 104.679393 35.880535
5.104000e+09 -24.027167 104.568215 37.282003
5.104250e+09 -23.719248 104.875527 34.106083
5.104500e+09 -24.277794 104.901416 33.601009
5.104750e+09 -24.289405 104.894027 33.520260
5.105000e+09 -24.098548 105.025498 33.065343
5.105250e+09 -24.045690 104.944927 33.348014
5.105500e+09 -24.172472 104.859365 33.472956
5.105750e+09 -23.994560 104.983632 34.203153
5.106000e+09 -23.487387 105.066296 33.517535
5.106250e+09 -23.861827 104.726609 36.011759
5.106500e+09 -23.630023 104.868676 30.911780
5.106750e+09 -23.969577 104.666579 33.374053
5.107000e+09 -23.670246 104.852832 33.835516
5.107250e+09 -23.353646 104.916278 32.081697
5.107500e+09 -23.445802 104.930728 31.837653
5.107750e+09 -24.202477 104.732730 33.307628
5.108000e+09 -23.866755 104.501824 34.768170
5.108250e+09 -23.861992 104.779694 32.409956
5.108500e+09 -24.127143 104.806558 31.625667
5.108750e+09 -23.735380 104.548479 33.573373
5.109000e+09 -23.884480 104.774168 33.510825
5.109250e+09 -24.156578 104.855001 30.878422
5.109500e+09 -23.815313 104.684674 33.538531
5.109750e+09 -24.608584 104.504259 31.829408
5.110000e+09 -23.489392 104.648251 30.552687
5.110250e+09 -23.601953 104.502669 32.786277
5.110500e+09 -23.979461 104.571610 33.604878
5.110750e+09 -23.793843 104.428307 31.426351
5.111000e+09 -23.609577 104.448807 31.458124
5.111250e+09 -23.832188 104.720934 31.522721
5.111500e+09 -24.199949 104.787130 29.487836
5.111750e+09 -23.636025 104.846428 29.102942
5.112000e+09 -24.003210 104.758225 29.371430
5.112250e+09 -24.158959 104.704868 29.546581
5.112500e+09 -23.962715 104.703355 29.733270
5.112750e+09 -23.750886 104.825579 29.671673
5.113000e+09 -23.687205 104.643014 29.903942
5.113250e+09 -23.509206 104.582439 29.639905
5.113500e+09 -23.863777 104.629881 31.648588
5.113750e+09 -24.264087 104.690009 29.113390
5.114000e+09 -23.658598 104.721664 28.574160
5.114250e+09 -23.539977 104.795033 29.608624
5.114500e+09 -24.406229 104.465667 31.377208
5.114750e+09 -24.008834 104.309857 31.715935
5.115000e+09 -23.867463 104.203710 31.640045
5.115250e+09 -23.972921 104.415219 30.740641
5.115500e+09 -23.800210 104.632471 28.145377
5.115750e+09 -24.124568 104.698677 26.827989
5.116000e+09 -23.682034 104.691708 28.546067
5.116250e+09 -23.863963 104.612232 29.373984
5.116500e+09 -23.528789 104.420384 28.625002
5.116750e+09 -23.992965 104.223924 29.877884
5.117000e+09 -24.073560 104.218234 30.001410
5.117250e+09 -23.911511 104.119982 29.932063
5.117500e+09 -24.071299 104.309703 29.032707
5.117750e+09 -24.044246 104.326814 28.934568
5.118000e+09 -23.995386 104.154629 29.351700
5.118250e+09 -23.870481 104.382731 26.349408
5.118500e+09 -23.818180 104.541390 26.372162
5.118750e+09 -23.943394 104.272183 28.644887
5.119000e+09 -23.751269 104.326699 27.040986
5.119250e+09 -23.662262 104.358827 26.832612
5.119500e+09 -24.133915 104.265290 27.538476
5.119750e+09 -23.977736 104.225094 27.196388
5.120000e+09 -24.010174 104.268932 28.116711
5.120250e+09 -24.133309 104.064677 28.844794
5.120500e+09 -24.383820 104.171378 26.879291
5.120750e+09 -23.962819 104.178580 27.393337
5.121000e+09 -23.831054 104.036943 28.011747
5.121250e+09 -23.919144 104.300924 26.511822
5.121500e+09 -23.988601 104.288863 27.127384
5.121750e+09 -23.964488 104.187608 26.509204
5.122000e+09 -24.192166 104.018977 27.205850
5.122250e+09 -23.895173 104.262499 25.731365
5.122500e+09 -23.862735 104.373833 24.700041
5.122750e+09 -23.694304 104.448421 25.083760
5.123000e+09 -23.957851 104.140798 26.640316
5.123250e+09 -24.118386 104.077332 26.639348
5.123500e+09 -24.187071 103.875044 27.178893
5.123750e+09 -23.875134 104.194763 25.438804
5.124000e+09 -24.031347 104.106931 25.761784
5.124250e+09 -23.897194 104.251983 24.626045
5.124500e+09 -23.984587 104.136205 25.277495
5.124750e+09 -23.926819 104.257557 24.284281
5.125000e+09 -24.002211 104.090875 25.070436
5.125250e+09 -24.174502 103.824660 25.811671
5.125500e+09 -23.905802 104.173816 24.460854
5.125750e+09 -24.072722 103.876290 25.403024
5.126000e+09 -24.143673 103.697268 26.096919
5.126250e+09 -24.133749 103.631069 26.337039
5.126500e+09 -24.029138 104.098129 24.621334
5.126750e+09 -23.746527 104.150874 23.818854
5.127000e+09 -23.682525 103.836083 24.976392
5.127250e+09 -23.985910 103.608468 25.935430
5.127500e+09 -23.933419 104.062732 24.539550
5.127750e+09 -23.909177 104.173845 23.894266
5.128000e+09 -24.116533 103.809826 24.799462
5.128250e+09 -23.786885 103.637798 25.533834
5.128500e+09 -23.688114 103.678417 25.188800
5.128750e+09 -23.730824 103.980801 24.312391
5.129000e+09 -24.091022 103.912687 24.387378
5.129250e+09 -24.073122 103.974710 23.922606
5.129500e+09 -24.011473 104.043840 23.441718
5.129750e+09 -23.642356 103.949133 23.116791
5.130000e+09 -24.062029 103.862774 23.370966
5.130250e+09 -23.665472 103.900920 23.297711
5.130500e+09 -23.690383 103.563896 24.414199
5.130750e+09 -24.157024 103.661561 24.105053
5.131000e+09 -23.652270 103.659992 24.041895
5.131250e+09 -24.121382 103.663975 23.758060
5.131500e+09 -23.794020 103.902845 23.199435
5.131750e+09 -23.585101 103.785716 22.980357
5.132000e+09 -23.755377 103.425424 24.108718
5.132250e+09 -24.097258 103.289106 24.740257
5.132500e+09 -23.759462 103.652029 23.792640
5.132750e+09 -23.999301 103.741190 23.135575
5.133000e+09 -24.109238 103.552850 23.347029
5.133250e+09 -24.011635 103.308057 23.980602
5.133500e+09 -23.923338 103.195810 24.442134
5.133750e+09 -24.075780 103.171948 24.352604
5.134000e+09 -24.156940 103.486645 23.269807
5.134250e+09 -23.692076 103.652824 22.544030
5.134500e+09 -23.825068 103.767996 21.963433
5.134750e+09 -24.007654 103.633867 21.874701
5.135000e+09 -23.722140 103.261668 22.889827
5.135250e+09 -23.705523 103.174553 23.221790
5.135500e+09 -23.687128 103.154351 23.377972
5.135750e+09 -24.039910 103.475865 22.603176
5.136000e+09 -23.621220 103.469183 22.382277
5.136250e+09 -23.921807 103.575071 21.957958
5.136500e+09 -23.571074 103.402808 22.098138
5.136750e+09 -23.560327 103.224821 22.614266
5.137000e+09 -23.611138 103.399751 22.425327
5.137250e+09 -23.565125 103.394780 22.296815
5.137500e+09 -23.807621 103.066033 23.771695
5.137750e+09 -23.636786 103.135481 22.845402
5.138000e+09 -23.912778 102.990874 24.174868
5.138250e+09 -23.907276 103.369293 22.712879
5.138500e+09 -23.536190 103.231619 22.167723
5.138750e+09 -24.030301 103.088853 22.579315
5.139000e+09 -24.098587 103.050470 22.611655
5.139250e+09 -24.095258 103.168908 21.947041
5.139500e+09 -23.652531 103.289736 21.386938
5.139750e+09 -23.506379 103.148098 21.015013
5.140000e+09 -23.736885 102.874155 22.561513
5.140250e+09 -24.114981 102.966102 22.531089
5.140500e+09 -23.959471 102.833743 22.949229
5.140750e+09 -23.690984 102.783316 22.184597
5.141000e+09 -23.704442 102.759868 22.035301
5.141250e+09 -23.962924 102.730332 23.044579
5.141500e+09 -23.782154 102.683380 22.766913
5.141750e+09 -23.795635 102.677492 22.741376
5.142000e+09 -24.020351 103.062074 21.269558
5.142250e+09 -23.997540 103.013676 21.226174
5.142500e+09 -23.534936 102.820880 20.959710
5.142750e+09 -23.673141 103.042793 19.961032
5.143000e+09 -23.477487 102.863032 20.418247
5.143250e+09 -23.580269 102.981523 20.209760
5.143500e+09 -23.764477 102.726120 22.233283
5.143750e+09 -23.735455 102.549343 22.428901
5.144000e+09 -23.696504 102.521009 22.097479
5.144250e+09 -24.091286 102.604542 22.358164
5.144500e+09 -23.747167 102.497112 22.122094
5.144750e+09 -23.636168 102.680635 20.712354
5.145000e+09 -24.003739 102.673169 21.705984
5.145250e+09 -24.045462 102.832872 20.705205
5.145500e+09 -23.804142 102.573613 21.469407
5.145750e+09 -23.932590 102.465051 21.663530
5.146000e+09 -24.013767 102.788198 19.809427
5.146250e+09 -23.670757 102.483573 20.494175
5.146500e+09 -24.044678 102.723645 19.602889
5.146750e+09 -23.617768 102.465548 20.461801
5.147000e+09 -23.920679 102.364951 21.179456
5.147250e+09 -24.099759 102.465284 20.840746
5.147500e+09 -24.055548 102.630464 19.926132
5.147750e+09 -23.869737 102.810594 18.555409
5.148000e+09 -23.775918 102.867061 18.071074
5.148250e+09 -23.597335 102.839108 17.805531
5.148500e+09 -23.905063 102.676533 19.092545
5.148750e+09 -23.462336 102.592080 18.176222
5.149000e+09 -23.903247 102.435362 19.933487
5.149250e+09 -23.914749 102.642554 18.633754
5.149500e+09 -23.940563 102.571273 19.286548
5.149750e+09 -23.498548 102.308896 19.296723
5.150000e+09 -24.050468 102.427608 19.269488
5.150250e+09 -23.621464 102.591117 18.070545
5.150500e+09 -23.486503 102.248197 19.467518
5.150750e+09 -23.958135 102.191119 20.483952
5.151000e+09 -23.680849 102.055395 20.209272
5.151250e+09 -24.019211 102.137295 20.118282
5.151500e+09 -24.042001 102.305376 19.288262
5.151750e+09 -23.970321 102.391217 18.903247
5.152000e+09 -23.536596 102.123373 19.185903
5.152250e+09 -23.539231 102.119698 17.589324
5.152500e+09 -23.890905 102.404560 17.456459
5.152750e+09 -23.539170 102.092381 19.843416
5.153000e+09 -24.035760 102.242174 19.300053
5.153250e+09 -23.657091 102.046285 19.692404
5.153500e+09 -23.619207 102.224877 17.001218
5.153750e+09 -23.663852 101.992397 20.187109
5.154000e+09 -23.908372 102.251397 18.117135
5.154250e+09 -23.421054 102.025364 18.305640
5.154500e+09 -23.945769 102.234134 17.975516
5.154750e+09 -23.627785 101.980993 20.180367
5.155000e+09 -23.878847 101.865324 20.257657
5.155250e+09 -23.886522 102.170144 17.176420
5.155500e+09 -23.823900 102.280174 16.840366
5.155750e+09 -23.852271 102.255495 17.834020
5.156000e+09 -23.845415 102.115207 18.840838
5.156250e+09 -23.884135 102.006254 18.915152
5.156500e+09 -23.727652 102.206708 15.998877
5.156750e+09 -23.412811 102.112167 15.248357
5.157000e+09 -23.626163 101.837497 18.232712
5.157250e+09 -23.644195 101.998353 15.831071
5.157500e+09 -23.442921 101.855524 16.748672
5.157750e+09 -23.926537 102.022881 17.206191
5.158000e+09 -23.370764 101.841762 17.604013
5.158250e+09 -23.771573 101.666002 19.280545
5.158500e+09 -23.745343 101.941540 16.480670
5.158750e+09 -23.830784 102.044080 16.756214
5.159000e+09 -23.391467 101.974087 15.639268
5.159250e+09 -23.672886 102.065629 15.970196
5.159500e+09 -23.594006 102.088866 15.977459
5.159750e+09 -23.329046 101.825288 16.581963
5.160000e+09 -23.913750 101.876267 18.010494
5.160250e+09 -23.863264 101.833255 18.956624
5.160500e+09 -23.730645 101.940037 15.754243
5.160750e+09 -23.417294 101.667785 16.515331
5.161000e+09 -23.579810 101.432305 16.988174
5.161250e+09 -24.056087 101.641745 17.886557
5.161500e+09 -23.487194 101.621291 17.184064
5.161750e+09 -23.669981 101.768879 15.257628
5.162000e+09 -23.873526 101.790974 17.695070
5.162250e+09 -23.435358 101.689820 16.881496
5.162500e+09 -23.589337 101.439389 17.246225
5.162750e+09 -23.757967 101.337384 17.566567
5.163000e+09 -23.817069 101.286487 17.786751
5.163250e+09 -23.582701 101.354311 17.486415
5.163500e+09 -23.999982 101.574613 16.937934
5.163750e+09 -23.498494 101.451106 16.843337
5.164000e+09 -23.936988 101.523723 17.466337
5.164250e+09 -23.507344 101.444468 17.029522
5.164500e+09 -23.632335 101.243402 17.071110
5.164750e+09 -23.631839 101.453137 16.465036
5.165000e+09 -23.491729 101.427833 16.407727
5.165250e+09 -23.875521 101.577148 16.022981
5.165500e+09 -23.471411 101.390212 16.395691
5.165750e+09 -23.897162 101.491346 16.460212
5.166000e+09 -23.719020 101.349778 17.020947
5.166250e+09 -23.922004 101.482453 16.046829
5.166500e+09 -23.839361 101.439513 16.673185
5.166750e+09 -23.867731 101.491459 15.532369
5.167000e+09 -23.772624 101.541107 14.669820
5.167250e+09 -23.626074 101.222743 15.290365
5.167500e+09 -23.709705 101.403796 15.012929
5.167750e+09 -23.503352 101.370426 15.063551
5.168000e+09 -23.691933 101.175696 15.353454
5.168250e+09 -23.814728 101.287302 15.283793
5.168500e+09 -23.816533 101.289536 15.603062
5.168750e+09 -23.651021 100.934438 15.932032
5.169000e+09 -23.710271 100.828323 16.055628
5.169250e+09 -23.802798 101.175191 15.696883
5.169500e+09 -23.810170 101.178144 15.710880
5.169750e+09 -23.587184 101.037301 15.631748
5.170000e+09 -23.534028 101.160203 15.266046
5.170250e+09 -23.739228 101.259518 15.112821
5.170500e+09 -23.774388 101.273986 14.911515
5.170750e+09 -23.743213 101.013992 15.272465
5.171000e+09 -23.755468 101.204690 14.915884
5.171250e+09 -23.710108 101.281546 14.566457
5.171500e+09 -23.756158 101.097409 14.828563
5.171750e+09 -23.766207 101.191806 14.525500
5.172000e+09 -23.595079 100.891090 14.796170
5.172250e+09 -23.713424 100.649406 15.114140
5.172500e+09 -23.648396 100.614233 15.685616
5.172750e+09 -23.615404 101.065475 15.021361
5.173000e+09 -23.755678 101.048342 15.009907
5.173250e+09 -23.588853 100.857612 15.113321
5.173500e+09 -23.582083 100.670932 15.157211
5.173750e+09 -23.592243 100.602509 15.333832
5.174000e+09 -23.654726 100.986829 14.807179
5.174250e+09 -23.698743 100.600099 15.067094
5.174500e+09 -23.761019 100.454731 15.139675
5.174750e+09 -23.809530 100.606969 15.032170
5.175000e+09 -23.723287 100.465387 15.343619
5.175250e+09 -23.617580 100.912881 14.778394
5.175500e+09 -23.754196 100.543724 14.646066
5.175750e+09 -23.787461 100.402747 14.859106
5.176000e+09 -23.768436 100.741171 14.649919
5.176250e+09 -23.584859 100.723132 14.595256
5.176500e+09 -23.548002 100.890423 14.197454
5.176750e+09 -23.730627 100.835384 13.993416
5.177000e+09 -23.814361 100.563956 13.969532
5.177250e+09 -23.651735 100.827269 13.817968
5.177500e+09 -23.729080 100.840010 13.740974
5.177750e+09 -23.808538 100.483879 13.869753
5.178000e+09 -23.605665 100.727881 13.825378
5.178250e+09 -23.742417 100.733317 13.661763
5.178500e+09 -23.798723 100.712653 13.400801
5.178750e+09 -23.648284 100.469814 13.743284
5.179000e+09 -23.739810 100.243869 13.984304
5.179250e+09 -23.726970 100.148558 14.222178
5.179500e+09 -23.550807 100.379262 14.266644
5.179750e+09 -23.725815 100.495695 14.042110
5.180000e+09 -23.805798 100.260004 13.933970
5.180250e+09 -23.819435 100.342195 13.750392
5.180500e+09 -23.837706 100.154010 13.830120
5.180750e+09 -23.842186 100.210085 13.784062
5.181000e+09 -23.631358 100.516500 13.579073
5.181250e+09 -23.663000 100.652831 13.288856
5.181500e+09 -23.799720 100.409831 13.192298
5.181750e+09 -23.739818 100.566031 12.985254
5.182000e+09 -23.814606 100.131003 13.032515
5.182250e+09 -23.606799 100.302879 13.288409
5.182500e+09 -23.763128 100.321932 13.173506
5.182750e+09 -23.838981 100.194728 13.089859
5.183000e+09 -23.729009 100.459972 12.862114
5.183250e+09 -23.585281 100.367679 13.047324
5.183500e+09 -23.647452 100.037950 13.376763
5.183750e+09 -23.723623 99.895621 13.520756
5.184000e+09 -23.726364 99.824738 13.659725
5.184250e+09 -23.670385 100.315785 13.174628
5.184500e+09 -23.736361 100.400220 12.751190
5.184750e+09 -23.829500 100.054351 12.750584
5.185000e+09 -23.829655 100.174030 12.635197
5.185250e+09 -23.848018 100.141435 12.476315
5.185500e+09 -23.667683 100.158062 12.670135
5.185750e+09 -23.579974 100.212364 12.628912
5.186000e+09 -23.561809 100.219296 12.547855
5.186250e+09 -23.563969 100.159905 12.646025
5.186500e+09 -23.777914 100.058944 12.366749
5.186750e+09 -23.685134 100.241009 12.126353
5.187000e+09 -23.726602 99.862196 12.454153
5.187250e+09 -23.614040 99.989386 12.557331
5.187500e+09 -23.691374 100.193011 12.351210
5.187750e+09 -23.760307 99.811550 12.325800
5.188000e+09 -23.775908 100.050362 12.279296
5.188250e+09 -23.807559 100.141064 12.029442
5.188500e+09 -23.848531 100.081924 11.855541
5.188750e+09 -23.883913 99.734650 11.954872
5.189000e+09 -23.808677 100.022161 12.044916
5.189250e+09 -23.834447 99.692025 12.034483
5.189500e+09 -23.797672 99.557881 12.339919
5.189750e+09 -23.841699 99.612187 12.270043
5.190000e+09 -23.818222 99.501731 12.419312
5.190250e+09 -23.773407 99.911170 12.124947
5.190500e+09 -23.787532 99.603500 12.334212
5.190750e+09 -23.852154 99.514711 12.186082
5.191000e+09 -23.811897 99.411783 12.349654
5.191250e+09 -23.813349 99.799261 11.889934
5.191500e+09 -23.766986 99.610268 12.099072
5.191750e+09 -23.757842 99.901405 11.818338
5.192000e+09 -23.672442 99.808448 11.694251
5.192250e+09 -23.642192 99.775510 11.501240
5.192500e+09 -23.637043 99.669115 11.606475
5.192750e+09 -23.664632 99.850633 11.415147
5.193000e+09 -23.677157 99.889638 11.148976
5.193250e+09 -23.796828 99.846968 11.087022
5.193500e+09 -23.853164 99.850971 10.968739
5.193750e+09 -23.861088 99.501037 11.181125
5.194000e+09 -23.752003 99.402221 11.501990
5.194250e+09 -23.756566 99.305552 11.633361
5.194500e+09 -23.694260 99.596154 11.319924
5.194750e+09 -23.830731 99.649334 11.145894
5.195000e+09 -23.740101 99.654843 11.012078
5.195250e+09 -23.867817 99.391187 11.098262
5.195500e+09 -23.882490 99.230464 11.337758
5.195750e+09 -23.865698 99.539741 10.837526
5.196000e+09 -23.777947 99.603920 10.727323
5.196250e+09 -23.737848 99.675628 10.713224
5.196500e+09 -23.883071 99.456439 10.600866
5.196750e+09 -23.855352 99.610735 10.660747
5.197000e+09 -23.775487 99.651949 10.461349
5.197250e+09 -23.739068 99.461263 10.473342
5.197500e+09 -23.726174 99.537595 10.417382
5.197750e+09 -23.724051 99.361818 10.671183
5.198000e+09 -23.791216 99.544597 10.398530
5.198250e+09 -23.862050 99.608975 10.170961
5.198500e+09 -23.925219 99.544487 10.074650
5.198750e+09 -23.824495 99.483901 10.149667
5.199000e+09 -23.836403 99.557240 10.077111
5.199250e+09 -23.809933 99.245000 10.194119
5.199500e+09 -23.935792 99.128900 10.147770
5.199750e+09 -23.932308 98.958938 10.481717
5.200000e+09 -23.927402 99.255299 10.288471
5.200250e+09 -23.978334 99.029727 10.229043
5.200500e+09 -23.927306 99.307686 10.149126
5.200750e+09 -23.999192 99.226598 9.673382
5.201000e+09 -23.869726 99.230595 10.084649
5.201250e+09 -23.915462 99.339707 9.896135
5.201500e+09 -23.984045 99.298819 9.689050
5.201750e+09 -23.953270 98.975917 10.040817
5.202000e+09 -24.000994 98.971026 9.924549
5.202250e+09 -23.886303 99.161906 9.789651
5.202500e+09 -23.921075 98.914532 9.985556
5.202750e+09 -23.984528 98.802813 10.161236
5.203000e+09 -24.023993 98.903366 9.978838
5.203250e+09 -24.009284 99.045397 9.891663
5.203500e+09 -23.913867 98.932427 9.902269
5.203750e+09 -24.001483 99.011629 9.599654
5.204000e+09 -23.947938 99.156267 9.711864
5.204250e+09 -24.005772 98.854368 9.511871
5.204500e+09 -24.026326 98.731494 9.694266
5.204750e+09 -24.013395 98.640885 9.886927
5.205000e+09 -23.981988 98.978035 9.693092
5.205250e+09 -23.906100 98.918679 9.646353
5.205500e+09 -23.871480 98.834244 9.602258
5.205750e+09 -23.871205 98.853506 9.425687
5.206000e+09 -23.926144 98.657101 9.739942
5.206250e+09 -23.955359 98.947683 9.388544
5.206500e+09 -24.041500 98.836241 9.338156
5.206750e+09 -23.953881 98.772668 9.384368
5.207000e+09 -23.913376 98.707448 9.402363
5.207250e+09 -23.891733 98.772612 9.378602
5.207500e+09 -24.028294 98.782490 9.057688
5.207750e+09 -24.086046 98.622939 9.162133
5.208000e+09 -24.021299 98.526449 9.363565
5.208250e+09 -24.065678 98.451582 9.369845
5.208500e+09 -24.006401 98.795120 9.043666
5.208750e+09 -24.013262 98.927524 9.194318
5.209000e+09 -24.050807 98.966817 8.789000
5.209250e+09 -24.022733 98.640153 8.744589
5.209500e+09 -23.964049 98.714516 8.921972
5.209750e+09 -24.038527 98.802934 8.580320
5.210000e+09 -24.070972 98.878814 8.474599
5.210250e+09 -24.007983 98.851270 8.501423
5.210500e+09 -23.978491 98.634301 8.523991
5.210750e+09 -24.093097 98.618086 8.280279
