! S21 sweep bladeRF - TX0=38 db | RX0=50 db | RX1=50 db - 2025-12-11T11:46:43
# Frequency [MHz], |S21| [db], |Mag_meas| [db], Phase [deg]
5.100000e+09 3.282262 129.609333 -70.793656
5.100250e+09 3.657573 129.996010 -68.143148
5.100500e+09 3.113519 130.095496 -65.845594
5.100750e+09 3.274108 130.298505 -64.683351
5.101000e+09 3.526755 130.252949 -64.477812
5.101250e+09 3.774217 130.093532 -66.710241
5.101500e+09 3.308646 129.727915 -70.466547
5.101750e+09 3.952207 130.352062 -68.226992
5.102000e+09 3.776440 130.034982 -69.716464
5.102250e+09 3.134579 129.675644 -71.227729
5.102500e+09 3.429213 130.300960 -65.483663
5.102750e+09 3.998432 130.309916 -68.188173
5.103000e+09 3.592387 129.994163 -67.230674
5.103250e+09 3.063198 129.861998 -65.385310
5.103500e+09 3.558874 130.428165 -64.354772
5.103750e+09 4.135180 130.399963 -63.108827
5.104000e+09 3.402865 130.281875 -66.585435
5.104250e+09 3.932873 130.103215 -67.770872
5.104500e+09 3.322053 129.769451 -67.241259
5.104750e+09 3.239157 129.692348 -66.629066
5.105000e+09 3.848948 129.943035 -68.581862
5.105250e+09 3.244144 129.723712 -70.917520
5.105500e+09 3.153697 129.738212 -70.910091
5.105750e+09 3.799278 130.421120 -67.179467
5.106000e+09 3.708024 130.432885 -67.079222
5.106250e+09 4.149600 130.221264 -67.581832
5.106500e+09 3.707407 130.498482 -65.418938
5.106750e+09 3.893118 129.929119 -68.655943
5.107000e+09 3.200335 129.939768 -66.539719
5.107250e+09 4.004504 130.201814 -66.520731
5.107500e+09 3.479021 130.203838 -65.683521
5.107750e+09 4.147122 130.426549 -63.735675
5.108000e+09 3.899910 130.453571 -66.570065
5.108250e+09 3.506151 130.213614 -65.422075
5.108500e+09 4.014754 130.121458 -66.678289
5.108750e+09 3.960228 129.928108 -70.535960
5.109000e+09 3.140432 129.819308 -67.967774
5.109250e+09 4.138410 130.052773 -69.220409
5.109500e+09 3.460034 130.060637 -68.446727
5.109750e+09 3.845254 129.756951 -70.562163
5.110000e+09 3.897672 130.155015 -67.104133
5.110250e+09 3.746212 130.098783 -69.426802
5.110500e+09 4.184383 130.092339 -68.960069
5.110750e+09 3.594958 129.886456 -67.144045
5.111000e+09 3.842749 129.699698 -71.043711
5.111250e+09 3.989452 130.118746 -67.083889
5.111500e+09 3.958086 130.477413 -66.149791
5.111750e+09 4.041558 130.513029 -63.642108
5.112000e+09 4.317084 130.406205 -64.429527
5.112250e+09 3.857579 130.384036 -66.304313
5.112500e+09 3.975505 130.448428 -64.637658
5.112750e+09 4.308830 130.075922 -69.271136
5.113000e+09 3.672886 130.001979 -67.401327
5.113250e+09 3.927123 130.106379 -66.668618
5.113500e+09 3.983277 130.074693 -66.767265
5.113750e+09 3.687667 130.162500 -66.505665
5.114000e+09 4.006391 130.192420 -69.150511
5.114250e+09 3.882481 130.282194 -68.421529
5.114500e+09 3.826353 130.265245 -66.920090
5.114750e+09 4.705420 130.379173 -66.465761
5.115000e+09 4.261234 130.044770 -71.269317
5.115250e+09 3.790336 129.736600 -68.747904
5.115500e+09 4.476073 130.398899 -65.182495
5.115750e+09 4.190931 130.217552 -70.183442
5.116000e+09 4.161668 129.798933 -71.759076
5.116250e+09 4.614104 130.386965 -69.452264
5.116500e+09 4.687676 130.353803 -70.546123
5.116750e+09 3.962247 129.874583 -72.278530
5.117000e+09 4.108220 130.217314 -70.824144
5.117250e+09 4.607382 130.200668 -69.495090
5.117500e+09 4.432597 130.066015 -72.454768
5.117750e+09 3.920649 129.724206 -73.517270
5.118000e+09 3.926255 129.689286 -74.157594
5.118250e+09 4.532992 130.213414 -71.925025
5.118500e+09 4.078983 129.990109 -72.620306
5.118750e+09 4.348514 130.003008 -69.126451
5.119000e+09 3.833246 130.090567 -67.949554
5.119250e+09 4.131511 130.142286 -70.936817
5.119500e+09 4.426204 130.153500 -68.647786
5.119750e+09 4.257169 129.725684 -71.216501
5.120000e+09 3.949587 129.786264 -73.053578
5.120250e+09 4.706708 130.141251 -70.893815
5.120500e+09 4.161055 129.745776 -69.623762
5.120750e+09 4.742530 130.246195 -71.327472
5.121000e+09 4.372068 129.793073 -72.474378
5.121250e+09 3.721276 129.854328 -69.522619
5.121500e+09 4.665169 130.134331 -69.369668
5.121750e+09 4.104991 130.248936 -67.456649
5.122000e+09 4.472493 130.183224 -71.265658
5.122250e+09 4.144849 130.165282 -71.043207
5.122500e+09 4.358318 130.458954 -68.114792
5.122750e+09 4.260318 130.243567 -67.391459
5.123000e+09 4.281284 130.378931 -66.445410
5.123250e+09 4.827884 130.143651 -71.242086
5.123500e+09 4.394916 129.966608 -74.142333
5.123750e+09 4.228186 129.937438 -74.297461
5.124000e+09 4.086815 129.970601 -69.063595
5.124250e+09 4.387507 129.751364 -70.195244
5.124500e+09 4.996711 130.485257 -68.461362
5.124750e+09 4.607468 130.434150 -69.519343
5.125000e+09 4.597654 130.378321 -68.152242
5.125250e+09 4.769523 130.094856 -69.382217
5.125500e+09 4.375070 129.713243 -73.189733
5.125750e+09 4.361912 130.298307 -67.574188
5.126000e+09 4.901847 130.422674 -69.557075
5.126250e+09 4.466652 130.140448 -67.813798
5.126500e+09 4.322417 130.206056 -69.965244
5.126750e+09 4.825406 130.144648 -73.366706
5.127000e+09 4.237190 130.148982 -69.379445
5.127250e+09 4.995196 130.187951 -71.101846
5.127500e+09 4.759798 129.912918 -72.794276
5.127750e+09 3.964888 129.862713 -69.854044
5.128000e+09 4.950390 130.094594 -71.702299
5.128250e+09 4.360980 129.731331 -74.601670
5.128500e+09 4.661804 130.059476 -74.307978
5.128750e+09 4.450419 129.790288 -72.396787
5.129000e+09 4.145132 129.994324 -69.750320
5.129250e+09 4.765895 130.110232 -68.577163
5.129500e+09 4.568857 130.387455 -70.343083
5.129750e+09 5.021874 130.176168 -70.974332
5.130000e+09 4.677958 130.045930 -69.617072
5.130250e+09 4.398336 130.157073 -70.547789
5.130500e+09 4.648501 130.453580 -68.031262
5.130750e+09 4.480035 130.281468 -70.487952
5.131000e+09 4.547385 130.208789 -68.303899
5.131250e+09 4.620761 130.295470 -67.966814
5.131500e+09 4.890829 130.321943 -67.606113
5.131750e+09 4.715422 130.418712 -70.289134
5.132000e+09 4.606634 130.253583 -71.706047
5.132250e+09 4.818551 130.484375 -73.164665
5.132500e+09 5.061390 130.071807 -73.054715
5.132750e+09 4.739213 129.732135 -74.143373
5.133000e+09 4.432812 129.778591 -71.301949
5.133250e+09 4.490433 129.720090 -74.001836
5.133500e+09 4.889681 130.478418 -71.158380
5.133750e+09 5.345787 130.350794 -73.578993
5.134000e+09 4.565259 130.227895 -70.166904
5.134250e+09 5.051460 130.068140 -73.075439
5.134500e+09 4.611846 129.817890 -71.700805
5.134750e+09 4.389209 129.980000 -71.692502
5.135000e+09 4.792920 130.337758 -68.632928
5.135250e+09 5.008461 130.496559 -71.034244
5.135500e+09 5.132990 130.112037 -72.276235
5.135750e+09 4.662702 130.067220 -73.998653
5.136000e+09 4.836702 130.374682 -72.208619
5.136250e+09 4.963020 130.518940 -69.786912
5.136500e+09 5.411668 130.446358 -73.609982
5.136750e+09 4.869120 130.116568 -73.301065
5.137000e+09 4.910863 129.818151 -74.604405
5.137250e+09 4.646032 129.672814 -75.750614
5.137500e+09 4.553422 130.029866 -71.673667
5.137750e+09 5.183079 130.046551 -73.826092
5.138000e+09 4.699451 130.089503 -71.030932
5.138250e+09 5.144663 130.456734 -70.215415
5.138500e+09 5.384162 130.428119 -70.009961
5.138750e+09 5.060292 130.423124 -71.637923
5.139000e+09 5.470325 130.389549 -72.183968
5.139250e+09 5.056593 130.265738 -70.530222
5.139500e+09 5.376955 130.167141 -73.055356
5.139750e+09 4.916181 129.726598 -75.221284
5.140000e+09 5.084420 130.267994 -72.536060
5.140250e+09 5.302606 130.177512 -73.297673
5.140500e+09 5.042163 130.096155 -74.118414
5.140750e+09 4.928345 130.198202 -71.469453
5.141000e+09 5.617015 130.404750 -70.622372
5.141250e+09 5.406167 130.477770 -69.312161
5.141500e+09 5.607418 130.402189 -70.279495
5.141750e+09 5.369336 130.202809 -73.067913
5.142000e+09 5.063208 129.718516 -75.646655
5.142250e+09 5.504070 130.089683 -75.047594
5.142500e+09 4.927823 129.723234 -76.429023
5.142750e+09 5.573829 130.221808 -74.521392
5.143000e+09 5.392464 130.426555 -72.742901
5.143250e+09 5.682932 130.397733 -76.557798
5.143500e+09 5.426252 130.135053 -74.299577
5.143750e+09 5.093880 130.208521 -72.130557
5.144000e+09 5.674354 130.458603 -70.177108
5.144250e+09 5.771979 130.370283 -72.067275
5.144500e+09 5.807511 130.348780 -73.603074
5.144750e+09 5.836140 130.400396 -71.845277
5.145000e+09 5.476031 130.340712 -73.080120
5.145250e+09 5.550985 130.416548 -73.441641
5.145500e+09 5.585423 130.179333 -75.449120
5.145750e+09 5.346495 130.127405 -73.704522
5.146000e+09 5.450268 130.043616 -75.578339
5.146250e+09 5.123146 129.724807 -77.650502
5.146500e+09 5.673042 130.432748 -74.707167
5.146750e+09 5.730368 130.520046 -77.632179
5.147000e+09 5.500325 130.031010 -77.120401
5.147250e+09 4.854733 129.612457 -77.883947
5.147500e+09 5.350662 130.334248 -73.455151
5.147750e+09 5.523225 130.316841 -73.126097
5.148000e+09 5.626143 130.098099 -75.750139
5.148250e+09 5.294875 130.111523 -75.177501
5.148500e+09 5.520331 129.988696 -77.141697
5.148750e+09 5.137330 129.824262 -75.413996
5.149000e+09 5.460958 130.244937 -73.469744
5.149250e+09 5.641749 130.089514 -75.370532
5.149500e+09 5.358455 129.663593 -77.884318
5.149750e+09 6.137447 130.404526 -73.608552
5.150000e+09 5.862728 130.156964 -76.002310
5.150250e+09 5.545959 130.051309 -75.188036
5.150500e+09 5.521770 129.885737 -76.544461
5.150750e+09 5.385398 129.627182 -78.279481
5.151000e+09 6.129088 130.350709 -74.669175
5.151250e+09 5.842827 130.407069 -74.804412
5.151500e+09 5.999543 130.325031 -75.453748
5.151750e+09 5.757124 130.007270 -77.091486
5.152000e+09 5.550033 130.181712 -74.198476
5.152250e+09 5.785960 130.175186 -76.669790
5.152500e+09 5.489675 130.197630 -74.854789
5.152750e+09 5.690430 130.040846 -76.784280
5.153000e+09 5.717232 129.965696 -78.255167
5.153250e+09 5.307986 129.803117 -78.600667
5.153500e+09 5.485967 130.112269 -76.132026
5.153750e+09 5.764685 130.047807 -78.071203
5.154000e+09 5.866483 130.487847 -75.228482
5.154250e+09 5.793362 130.349685 -78.030466
5.154500e+09 5.724849 130.197858 -76.031463
5.154750e+09 5.929677 130.478823 -74.526468
5.155000e+09 5.832649 130.190668 -76.363332
5.155250e+09 5.769358 129.929951 -78.293377
5.155500e+09 5.297650 129.748168 -79.196264
5.155750e+09 5.321088 129.939784 -76.023894
5.156000e+09 5.854577 130.092745 -77.241667
5.156250e+09 5.952427 130.434559 -74.500716
5.156500e+09 5.670601 130.263832 -74.823291
5.156750e+09 6.146023 130.399829 -75.234824
5.157000e+09 6.085580 130.148606 -76.840767
5.157250e+09 5.993926 130.318775 -75.232100
5.157500e+09 6.171087 130.363089 -75.566532
5.157750e+09 6.079106 130.187577 -76.623575
5.158000e+09 6.034390 130.079979 -77.358352
5.158250e+09 5.834218 129.765398 -79.100292
5.158500e+09 5.923184 130.298941 -75.129499
5.158750e+09 6.025259 130.459858 -73.891581
5.159000e+09 6.264375 130.389674 -75.552986
5.159250e+09 6.437739 130.368585 -75.753842
5.159500e+09 6.515540 130.404868 -76.359267
5.159750e+09 6.219961 130.106278 -79.148015
5.160000e+09 5.738023 129.710689 -81.157458
5.160250e+09 6.297682 130.541507 -77.647344
5.160500e+09 5.959543 130.248158 -78.393511
5.160750e+09 5.938919 129.894111 -80.186411
5.161000e+09 5.850568 129.739134 -80.543918
5.161250e+09 5.789503 129.995670 -77.453046
5.161500e+09 6.397337 130.410348 -76.243863
5.161750e+09 6.172732 130.418531 -76.638936
5.162000e+09 5.994176 130.322376 -77.748797
5.162250e+09 6.421519 130.371062 -78.052055
5.162500e+09 6.323892 130.105901 -79.457241
5.162750e+09 6.043188 130.177424 -77.106194
5.163000e+09 6.350683 130.482257 -79.555146
5.163250e+09 6.486410 130.375576 -78.364933
5.163500e+09 6.245556 130.444589 -75.615547
5.163750e+09 6.243401 130.292453 -79.882869
5.164000e+09 5.839550 129.791701 -82.004655
5.164250e+09 5.740078 129.880317 -79.156326
5.164500e+09 6.256106 130.295285 -78.128629
5.164750e+09 6.274898 130.460743 -76.934243
5.165000e+09 6.288600 130.279011 -78.975347
5.165250e+09 6.202701 130.232019 -77.394237
5.165500e+09 6.377921 130.430738 -78.315185
5.165750e+09 6.451102 130.452205 -78.101323
5.166000e+09 6.706390 130.431100 -76.719745
5.166250e+09 6.475394 130.286593 -80.055447
5.166500e+09 6.254639 130.323305 -78.233292
5.166750e+09 6.595252 130.269864 -80.029994
5.167000e+09 6.425761 130.435736 -77.529347
5.167250e+09 6.793800 130.475935 -77.233222
5.167500e+09 6.767301 130.306743 -81.885611
5.167750e+09 6.127159 130.041628 -81.603841
5.168000e+09 6.145134 129.830755 -81.928676
5.168250e+09 6.095988 130.040853 -81.982861
5.168500e+09 6.083271 130.050193 -82.552475
5.168750e+09 6.258472 130.290645 -79.474006
5.169000e+09 6.231978 130.220592 -81.374576
5.169250e+09 6.245952 130.066974 -83.279702
5.169500e+09 6.366014 130.081727 -81.512329
5.169750e+09 6.229237 130.083947 -82.407110
5.170000e+09 6.158292 130.054592 -83.180924
5.170250e+09 6.350564 130.171009 -80.897067
5.170500e+09 6.531388 130.186813 -80.663860
5.170750e+09 6.370713 129.853289 -83.385618
5.171000e+09 6.282817 130.090354 -81.230345
5.171250e+09 6.471863 130.024404 -83.388241
5.171500e+09 6.318472 129.711127 -83.876444
5.171750e+09 6.293549 129.640460 -84.464915
5.172000e+09 7.100048 130.435247 -80.291552
5.172250e+09 6.715271 130.424104 -79.854962
5.172500e+09 6.545345 130.256581 -81.865186
5.172750e+09 6.625247 130.059700 -84.213077
5.173000e+09 6.475417 130.038786 -85.098002
5.173250e+09 6.267315 130.057137 -83.282491
5.173500e+09 6.587725 130.027990 -84.131661
5.173750e+09 6.135380 129.824148 -83.864590
5.174000e+09 6.310548 130.122232 -83.828458
5.174250e+09 6.436167 129.862649 -85.506879
5.174500e+09 6.165330 129.691156 -86.632384
5.174750e+09 6.754666 130.337284 -81.938705
5.175000e+09 6.969367 130.644778 -84.660891
5.175250e+09 6.532086 130.247104 -83.794254
5.175500e+09 6.589904 130.276071 -81.846827
5.175750e+09 6.844164 130.197934 -84.179076
5.176000e+09 6.588811 130.185215 -82.793276
5.176250e+09 6.758415 130.081668 -85.173521
5.176500e+09 6.871237 130.002540 -86.054363
5.176750e+09 6.798470 130.284391 -83.072178
5.177000e+09 6.826397 130.423782 -81.913791
5.177250e+09 6.828502 130.497174 -81.033454
5.177500e+09 6.533268 130.154234 -85.874084
5.177750e+09 6.241312 129.756053 -86.821234
5.178000e+09 6.368395 129.953376 -84.861900
5.178250e+09 6.663097 130.270348 -82.716782
5.178500e+09 6.952838 130.260749 -83.663100
5.178750e+09 7.252567 130.329522 -84.264868
5.179000e+09 7.327422 130.331033 -84.808901
5.179250e+09 6.758042 130.140786 -84.568344
5.179500e+09 7.043211 130.457254 -81.676895
5.179750e+09 7.373919 130.469301 -81.063201
5.180000e+09 7.240573 130.488942 -81.520622
5.180250e+09 7.089253 130.280804 -86.633348
5.180500e+09 6.725622 130.124277 -86.073571
5.180750e+09 6.618767 129.979187 -87.474438
5.181000e+09 6.676755 129.737204 -87.907351
5.181250e+09 7.544449 130.468425 -85.893694
5.181500e+09 7.334014 130.375954 -84.650329
5.181750e+09 7.073364 130.374677 -85.339785
5.182000e+09 7.121505 129.911384 -83.330142
5.182250e+09 7.263531 130.258611 -84.679421
5.182500e+09 7.234586 130.290114 -83.805818
5.182750e+09 7.257802 130.330180 -83.062529
5.183000e+09 7.003157 130.278413 -84.329350
5.183250e+09 7.167888 130.216587 -84.685388
5.183500e+09 6.984363 129.960224 -87.390891
5.183750e+09 6.758925 129.625738 -89.472758
5.184000e+09 7.464676 130.225271 -86.377175
5.184250e+09 7.361221 130.161610 -88.039074
5.184500e+09 6.919812 130.059262 -88.332913
5.184750e+09 7.158978 130.000643 -88.448890
5.185000e+09 7.326217 130.026249 -88.769390
5.185250e+09 6.981225 129.683579 -90.674311
5.185500e+09 7.457340 130.494849 -88.863254
5.185750e+09 7.299197 130.223919 -86.384969
5.186000e+09 7.246527 130.204757 -88.569173
5.186250e+09 7.076638 130.089349 -90.091099
5.186500e+09 6.936210 130.074212 -89.306637
5.186750e+09 7.292537 130.397666 -86.094845
5.187000e+09 7.404089 130.510579 -84.186563
5.187250e+09 7.229607 130.334143 -87.057369
5.187500e+09 7.020440 130.084881 -89.308501
5.187750e+09 7.251901 129.997691 -89.490411
5.188000e+09 6.858466 129.821592 -89.543242
5.188250e+09 6.727481 129.732508 -91.051257
5.188500e+09 7.199008 130.221026 -87.539848
5.188750e+09 7.224401 130.005692 -90.420260
5.189000e+09 7.090022 130.018253 -90.623296
5.189250e+09 7.291714 130.100863 -91.543356
5.189500e+09 7.101526 129.894561 -88.871554
5.189750e+09 7.294138 130.212466 -87.794453
5.190000e+09 7.481128 130.488351 -85.734493
5.190250e+09 7.339929 130.314037 -86.663945
5.190500e+09 7.435107 130.057108 -89.758778
5.190750e+09 7.087381 129.874503 -88.560483
5.191000e+09 7.261773 130.182958 -88.380480
5.191250e+09 7.557930 130.445379 -89.388963
5.191500e+09 7.290303 130.237720 -88.991481
5.191750e+09 7.154635 130.002964 -91.268441
5.192000e+09 6.947224 129.695418 -93.394869
5.192250e+09 7.259204 129.720322 -92.422010
5.192500e+09 7.415554 129.745352 -91.847232
5.192750e+09 7.291797 129.878827 -89.160509
5.193000e+09 7.578063 129.952485 -91.086060
5.193250e+09 7.447025 129.946021 -89.002662
5.193500e+09 7.469809 130.084091 -91.526147
5.193750e+09 7.245281 129.686377 -93.661128
5.194000e+09 7.837022 130.449354 -87.676123
5.194250e+09 7.375279 129.919089 -86.917449
5.194500e+09 8.038877 130.337545 -91.929366
5.194750e+09 7.845925 130.408814 -89.375449
5.195000e+09 7.655675 130.365591 -89.916753
5.195250e+09 7.723736 130.445072 -88.934483
5.195500e+09 7.678288 130.421978 -90.557679
5.195750e+09 7.905277 130.613443 -92.442652
5.196000e+09 7.936191 130.298037 -90.038566
5.196250e+09 8.092989 130.525149 -88.175966
5.196500e+09 7.833682 130.149840 -92.473651
5.196750e+09 7.302508 129.728836 -94.376801
5.197000e+09 7.708135 130.274681 -91.386222
5.197250e+09 7.973842 130.307316 -93.394938
5.197500e+09 8.113248 130.223499 -92.831554
5.197750e+09 7.998186 130.262592 -90.443771
5.198000e+09 8.104058 130.447030 -92.416984
5.198250e+09 7.747949 130.247649 -91.511384
5.198500e+09 7.955312 130.475122 -92.992441
5.198750e+09 8.009734 130.549391 -94.164103
5.199000e+09 7.622806 130.040335 -93.991215
5.199250e+09 7.738441 130.045734 -92.318353
5.199500e+09 7.665744 130.021577 -94.198934
5.199750e+09 7.716783 130.120350 -92.166697
5.200000e+09 7.919643 130.321926 -90.535063
5.200250e+09 7.962330 130.346316 -92.838725
5.200500e+09 8.038305 130.225171 -91.258006
5.200750e+09 8.147406 130.367262 -91.996488
5.201000e+09 8.214297 130.547553 -91.163289
5.201250e+09 7.798689 130.201381 -92.911434
5.201500e+09 7.806406 130.222744 -92.900319
5.201750e+09 7.718522 130.057043 -95.111799
5.202000e+09 7.878535 130.073588 -96.427632
5.202250e+09 7.684805 129.930748 -96.241761
5.202500e+09 7.654223 129.940902 -96.498897
5.202750e+09 7.517546 129.705399 -97.931115
5.203000e+09 7.734952 129.634815 -99.189000
5.203250e+09 8.461375 130.348043 -93.043288
5.203500e+09 8.556762 130.244477 -94.399882
5.203750e+09 8.075988 130.443108 -92.193669
5.204000e+09 8.285918 130.336574 -95.580744
5.204250e+09 8.479283 130.512698 -95.384370
5.204500e+09 8.626967 130.506336 -94.777930
5.204750e+09 8.302542 130.456981 -91.646297
5.205000e+09 8.214944 130.381261 -93.840252
5.205250e+09 8.618443 130.392179 -93.534439
5.205500e+09 8.409018 130.445481 -93.289730
5.205750e+09 8.282017 130.432264 -94.006317
5.206000e+09 8.532680 130.449235 -93.104033
5.206250e+09 8.560183 130.135845 -96.759908
5.206500e+09 8.081878 130.076336 -95.642180
5.206750e+09 8.807208 130.528472 -95.751112
5.207000e+09 8.629998 130.541602 -96.044501
5.207250e+09 8.656062 130.210060 -95.033997
5.207500e+09 8.819834 130.263842 -95.966333
5.207750e+09 8.633309 130.294753 -93.891275
5.208000e+09 8.666697 130.396082 -93.191883
5.208250e+09 8.505490 130.471477 -93.321090
5.208500e+09 8.241847 130.010094 -99.274344
5.208750e+09 7.741265 129.608999 -100.940534
5.209000e+09 8.534368 130.369980 -96.562324
5.209250e+09 8.775008 130.391908 -97.595276
5.209500e+09 8.654680 130.373235 -97.527602
5.209750e+09 8.744955 130.181831 -99.904243
5.210000e+09 8.390117 129.857146 -101.839686
5.210250e+09 8.348312 129.682740 -102.787589
5.210500e+09 9.172326 130.419129 -98.337483
5.210750e+09 8.935345 130.191657 -99.713827
5.211000e+09 8.851076 130.123926 -100.822278
5.211250e+09 8.696428 130.138986 -98.162455
5.211500e+09 8.957848 130.217315 -99.541144
5.211750e+09 8.957860 130.242766 -96.718578
5.212000e+09 8.612706 130.198984 -99.526214
5.212250e+09 8.485031 130.200655 -98.096406
5.212500e+09 8.388739 130.149510 -100.128713
