! S21 sweep bladeRF - TX0=38 db | RX0=50 db | RX1=50 db - 2025-12-04T20:46:08
# Frequency [MHz], |S21| [db], |Mag_meas| [db], Phase [deg]
5.100000e+09 -24.243775 104.048573 30.261722
5.100250e+09 -24.431470 104.189603 29.013401
5.100500e+09 -23.924553 103.847570 32.162790
5.100750e+09 -24.163905 103.955630 31.078901
5.101000e+09 -24.057638 104.145792 29.216408
5.101250e+09 -24.084826 104.160300 28.470280
5.101500e+09 -24.396143 103.773611 30.891624
5.101750e+09 -23.605154 104.170162 28.442481
5.102000e+09 -23.722225 92.872445 27.167386
5.102250e+09 -24.252357 103.910646 29.539353
5.102500e+09 -23.879208 103.789927 30.052379
5.102750e+09 -24.004509 104.230497 27.741730
5.103000e+09 -23.967530 104.269688 27.699492
5.103250e+09 -24.204621 103.630561 30.084135
5.103500e+09 -23.660051 104.197469 27.558684
5.103750e+09 -23.835278 104.151426 27.968180
5.104000e+09 -23.933803 104.246407 27.450537
5.104250e+09 -24.339925 103.698768 29.070503
5.104500e+09 -23.981431 103.525155 31.435254
5.104750e+09 -23.759352 103.723639 29.952289
5.105000e+09 -23.912960 104.238355 28.565116
5.105250e+09 -23.838422 103.602010 30.580900
5.105500e+09 -23.701801 103.746526 29.534744
5.105750e+09 -23.599785 103.891350 28.231778
5.106000e+09 -24.339096 103.493387 29.647861
5.106250e+09 -24.352006 103.612906 28.564194
5.106500e+09 -23.871488 47.085277 29.766825
5.106750e+09 -23.728755 103.644262 28.081122
5.107000e+09 -23.671879 103.811475 29.212371
5.107250e+09 -23.935470 99.375758 29.678268
5.107500e+09 -24.206707 99.637817 29.148500
5.107750e+09 -23.810207 103.498494 28.813718
5.108000e+09 -23.722267 103.919130 27.215247
5.108250e+09 -23.995537 103.992850 26.438966
5.108500e+09 -23.906481 104.008163 25.797385
5.108750e+09 -24.108750 103.296250 28.345881
5.109000e+09 -23.879828 104.000148 25.556336
5.109250e+09 -24.277333 103.585263 26.880067
5.109500e+09 -23.949854 103.937844 25.477667
5.109750e+09 -24.059935 103.221295 28.198177
5.110000e+09 -24.273205 103.345427 27.180679
5.110250e+09 -24.154964 103.194086 27.706281
5.110500e+09 -24.012255 103.828246 25.545192
5.110750e+09 -24.135108 98.422421 25.453755
5.111000e+09 -23.835168 103.889227 24.847448
5.111250e+09 -24.209295 103.583450 25.848142
5.111500e+09 -24.165183 103.542513 25.480712
5.111750e+09 -23.892867 103.048646 27.353806
5.112000e+09 -23.622802 103.837412 24.096731
5.112250e+09 -24.051494 103.057813 27.782474
5.112500e+09 -23.901745 103.090665 27.993506
5.112750e+09 -24.124302 103.588301 25.650515
5.113000e+09 -23.775201 96.731397 25.593187
5.113250e+09 -23.661024 98.124199 25.691911
5.113500e+09 -24.103028 103.042176 27.167251
5.113750e+09 -23.917626 103.666854 25.042543
5.114000e+09 -23.621275 100.327966 25.431658
5.114250e+09 -23.642061 103.292284 26.042341
5.114500e+09 -23.730056 102.807741 27.690468
5.114750e+09 -24.142798 102.930749 22.776470
5.115000e+09 -23.956716 101.012229 21.245819
5.115250e+09 -23.749309 103.501393 23.800863
5.115500e+09 -23.849374 102.881795 26.625326
5.115750e+09 -23.821442 103.526516 24.565901
5.116000e+09 -24.044470 102.825342 27.261786
5.116250e+09 -24.430229 102.802466 26.959668
5.116500e+09 -24.176372 89.993135 24.367224
5.116750e+09 -24.245503 103.012479 24.764852
5.117000e+09 -23.704330 102.892696 25.224137
5.117250e+09 -23.759159 103.434871 23.759042
5.117500e+09 -23.612769 102.975172 24.918845
5.117750e+09 -24.104404 103.212429 24.270429
5.118000e+09 -24.227686 102.958196 24.636440
5.118250e+09 -24.139391 100.766356 23.992841
5.118500e+09 -23.833001 103.139218 23.341264
5.118750e+09 -24.193648 91.279969 24.727276
5.119000e+09 -23.975967 102.609114 26.046084
5.119250e+09 -23.725474 102.721198 25.307030
5.119500e+09 -23.585331 102.945082 24.003198
5.119750e+09 -23.652314 103.119557 23.928264
5.120000e+09 -23.596861 102.900913 24.591709
5.120250e+09 -23.802111 102.554269 26.380975
5.120500e+09 -24.024218 102.446256 26.736578
5.120750e+09 -23.584806 94.284641 23.333592
5.121000e+09 -23.860523 103.102321 23.607566
5.121250e+09 -23.639488 90.345469 22.779316
5.121500e+09 -23.799996 102.477711 25.783116
5.121750e+09 -23.613850 102.664129 24.581767
5.122000e+09 -24.033296 91.315634 25.999391
5.122250e+09 -23.730524 82.859376 24.263069
5.122500e+09 -23.739120 101.646300 24.760536
5.122750e+09 -23.878707 103.004854 22.753687
5.123000e+09 -24.154630 102.744193 23.913486
5.123250e+09 -23.712834 88.998779 24.067253
5.123500e+09 -23.944068 102.538503 22.815359
5.123750e+09 -23.635179 93.212603 23.290400
5.124000e+09 -24.008848 102.825341 22.620967
5.124250e+09 -24.026109 101.534753 25.271504
5.124500e+09 -23.833895 102.193292 24.650965
5.124750e+09 -23.915837 102.784152 22.273523
5.125000e+09 -24.023333 102.709130 22.586011
5.125250e+09 -24.039317 100.560120 23.017048
5.125500e+09 -24.154580 93.173012 24.464866
5.125750e+09 -24.113820 99.466239 24.987007
5.126000e+09 -23.728047 102.181544 23.551661
5.126250e+09 -23.959654 102.645619 22.295673
5.126500e+09 -23.738728 99.301308 21.618709
5.126750e+09 -24.297478 102.164447 24.370919
5.127000e+09 -23.708349 99.416323 22.966104
5.127250e+09 -24.143009 100.504070 25.878839
5.127500e+09 -23.839042 101.922224 24.227706
5.127750e+09 -23.950101 73.624722 22.021185
5.128000e+09 -24.174280 102.073221 23.932766
5.128250e+09 -24.202659 101.683844 19.299489
5.128500e+09 -24.167994 101.937372 22.261970
5.128750e+09 -23.737948 102.015329 22.101113
5.129000e+09 -24.199558 96.891497 24.642600
5.129250e+09 -23.694111 101.628419 21.585554
5.129500e+09 -24.023521 95.263554 22.920867
5.129750e+09 -23.782013 96.265892 20.404770
5.130000e+09 -23.760187 101.996583 22.021642
5.130250e+09 -24.161253 92.878661 22.481603
5.130500e+09 -23.891077 102.258153 20.755515
5.130750e+09 -24.254817 101.727060 23.583193
5.131000e+09 -23.858542 96.934707 23.722206
5.131250e+09 -24.013449 101.506537 23.952278
5.131500e+09 -23.856262 94.714385 22.119541
5.131750e+09 -23.738591 95.757757 21.629236
5.132000e+09 -24.087943 101.481601 24.838603
5.132250e+09 -23.940600 101.494831 23.784263
5.132500e+09 -23.851309 101.950018 20.712587
5.132750e+09 -24.058407 101.987177 22.611092
5.133000e+09 -23.957158 99.395756 20.525067
5.133250e+09 -24.128162 101.380569 24.191157
5.133500e+09 -24.130352 101.521766 23.863741
5.133750e+09 -24.165353 101.862157 20.816375
5.134000e+09 -24.105769 101.383587 23.483052
5.134250e+09 -23.794214 101.508024 21.376311
5.134500e+09 -24.064709 89.962755 24.246230
5.134750e+09 -23.901497 98.325881 23.246989
5.135000e+09 -24.138963 101.276891 21.653017
5.135250e+09 -23.896698 101.220994 23.046049
5.135500e+09 -23.697794 101.617162 21.030635
5.135750e+09 -23.989521 98.787482 21.447200
5.136000e+09 -23.949856 100.526392 20.918796
5.136250e+09 -23.890005 101.304588 20.380578
5.136500e+09 -23.826233 101.090260 22.333040
5.136750e+09 -23.856558 101.086531 23.190984
5.137000e+09 -24.267198 90.187502 24.394457
5.137250e+09 -24.021069 101.627742 20.071035
5.137500e+09 -24.121454 91.895091 23.732622
5.137750e+09 -23.743235 101.229667 21.350687
5.138000e+09 -24.245257 100.786539 23.294520
5.138250e+09 -23.823356 101.164467 22.820447
5.138500e+09 -23.716298 89.140075 21.683026
5.138750e+09 -23.747440 101.321018 22.061237
5.139000e+09 -24.267979 99.943155 23.597268
5.139250e+09 -24.191202 100.883262 22.918639
5.139500e+09 -23.839437 100.473380 21.736295
5.139750e+09 -23.755359 101.137061 22.518642
5.140000e+09 -23.951963 86.820270 20.923772
5.140250e+09 -23.716951 101.285495 21.076185
5.140500e+09 -23.740582 91.184855 21.096772
5.140750e+09 -23.296120 101.366006 20.975270
5.141000e+09 -23.816889 101.278156 21.008424
5.141250e+09 -24.192025 98.595889 21.517436
5.141500e+09 -23.794958 100.864771 21.984034
5.141750e+09 -23.781829 101.152408 21.440394
5.142000e+09 -24.241189 93.721547 22.165356
5.142250e+09 -24.262034 100.639909 21.894224
5.142500e+09 -23.910028 101.198736 20.052775
5.142750e+09 -23.757344 100.940810 21.607810
5.143000e+09 -24.339509 100.664346 22.374387
5.143250e+09 -23.731718 101.064848 21.516735
5.143500e+09 -23.754821 101.081320 20.934303
5.143750e+09 -23.865381 98.464083 22.429892
5.144000e+09 -24.203417 100.466628 22.544365
5.144250e+09 -24.208740 100.900687 20.990672
5.144500e+09 -23.643417 100.964795 20.506268
5.144750e+09 -23.782659 90.449450 21.557972
5.145000e+09 -23.969708 100.367293 22.881789
5.145250e+09 -24.043008 100.336666 22.670209
5.145500e+09 -24.255245 96.129446 22.006731
5.145750e+09 -23.815463 94.631658 20.725417
5.146000e+09 -23.780896 93.496379 20.219191
5.146250e+09 -24.207230 100.415904 21.292250
5.146500e+09 -23.916143 100.295409 22.151750
5.146750e+09 -23.782202 100.883408 20.882942
5.147000e+09 -23.707404 100.715720 21.552716
5.147250e+09 -24.070310 100.226927 21.790128
5.147500e+09 -23.957908 99.533779 22.587928
5.147750e+09 -24.081300 100.743292 20.799949
5.148000e+09 -23.737175 86.202430 20.745007
5.148250e+09 -24.247483 98.134742 21.310519
5.148500e+09 -23.990782 100.774383 20.027160
5.148750e+09 -23.928501 96.758149 19.844841
5.149000e+09 -23.943045 94.310617 21.826512
5.149250e+09 -23.856925 100.123967 22.613153
5.149500e+09 -23.934316 100.075199 21.998166
5.149750e+09 -23.816192 99.463116 22.175023
5.150000e+09 -24.214771 98.019204 19.878659
5.150250e+09 -23.833105 100.604414 20.610767
5.150500e+09 -24.145156 99.886356 21.890465
5.150750e+09 -23.755906 100.504676 20.953980
5.151000e+09 -23.999953 100.535403 20.035470
5.151250e+09 -24.099183 99.808027 21.579244
5.151500e+09 -24.208187 100.202732 20.626190
5.151750e+09 -23.964374 100.509872 19.864883
5.152000e+09 -24.231540 99.750423 21.147634
5.152250e+09 -23.837773 99.901569 21.971403
5.152500e+09 -23.795408 92.455723 20.858403
5.152750e+09 -24.050097 100.305808 20.516599
5.153000e+09 -23.801236 98.415217 20.011401
5.153250e+09 -23.765112 97.684757 20.782472
5.153500e+09 -23.841869 96.463181 20.614919
5.153750e+09 -23.845384 99.922078 20.835770
5.154000e+09 -24.030939 99.650996 21.654013
5.154250e+09 -23.854184 99.785037 21.867826
5.154500e+09 -24.091844 98.269772 21.125410
5.154750e+09 -23.753420 100.230592 20.099726
5.155000e+09 -23.800594 99.007622 21.181881
5.155250e+09 -23.694569 95.066903 19.920988
5.155500e+09 -24.152696 98.688444 20.512850
5.155750e+09 -23.754374 91.938780 20.385136
5.156000e+09 -23.870404 99.634011 21.254425
5.156250e+09 -24.029302 99.462396 21.613786
5.156500e+09 -24.151938 98.169923 20.701803
5.156750e+09 -23.987303 82.353020 19.972136
5.157000e+09 -23.747004 99.703677 20.808902
5.157250e+09 -24.211683 99.580286 20.695684
5.157500e+09 -23.787758 78.533285 20.166388
5.157750e+09 -24.125768 99.468388 20.420785
5.158000e+09 -24.007538 100.054078 19.283680
5.158250e+09 -24.167613 97.852975 20.552617
5.158500e+09 -24.217375 96.457448 20.700847
5.158750e+09 -24.169301 99.808901 19.941786
5.159000e+09 -24.117198 98.526051 20.593967
5.159250e+09 -23.846229 97.213157 21.342299
5.159500e+09 -23.841507 85.372064 21.481563
5.159750e+09 -24.185276 99.414891 21.153843
5.160000e+09 -24.107517 99.797110 19.882396
5.160250e+09 -23.891184 87.697008 20.674132
5.160500e+09 -23.743591 99.747436 20.203927
5.160750e+09 -24.294055 94.679460 20.155810
5.161000e+09 -23.629797 99.473537 20.670887
5.161250e+09 -23.973324 96.530133 20.670988
5.161500e+09 -24.045138 99.745900 19.731569
5.161750e+09 -24.106154 99.059390 20.632173
5.162000e+09 -23.801449 88.213159 20.327222
5.162250e+09 -24.146005 99.256639 20.330890
5.162500e+09 -24.097954 99.025083 20.683236
5.162750e+09 -24.208568 99.239389 20.395698
5.163000e+09 -23.765130 99.313195 20.332962
5.163250e+09 -24.083176 99.398811 19.579206
5.163500e+09 -23.876067 99.097735 20.262482
5.163750e+09 -24.041203 99.726180 19.462579
5.164000e+09 -23.792748 99.378891 19.681998
5.164250e+09 -24.123296 99.249188 19.664216
5.164500e+09 -24.195583 99.274873 19.557571
5.164750e+09 -23.736568 99.209307 19.843650
5.165000e+09 -24.117551 91.599593 19.415107
5.165250e+09 -23.784739 96.644854 19.557702
5.165500e+09 -23.853185 99.122795 18.728819
5.165750e+09 -23.812181 96.665936 19.928679
5.166000e+09 -23.972781 98.873350 20.274949
5.166250e+09 -23.999391 99.032038 19.510441
5.166500e+09 -23.972694 99.356776 19.063780
5.166750e+09 -23.733779 99.227680 19.403940
5.167000e+09 -23.963240 96.916333 20.263016
5.167250e+09 -23.761939 99.099685 20.045656
5.167500e+09 -23.992925 96.202991 20.689200
5.167750e+09 -24.042199 98.673716 20.557693
5.168000e+09 -24.045195 96.904302 19.227525
5.168250e+09 -23.833010 98.959466 18.941082
5.168500e+09 -23.907499 96.437910 19.468737
5.168750e+09 -24.033444 96.586489 20.245337
5.169000e+09 -23.744179 99.070412 19.635688
5.169250e+09 -24.153200 92.165793 18.804855
5.169500e+09 -23.721605 69.156159 18.842219
5.169750e+09 -23.821185 87.061573 18.451645
5.170000e+09 -23.786903 99.177359 18.492970
5.170250e+09 -23.992501 99.070913 18.654976
5.170500e+09 -23.822134 96.461106 18.389331
5.170750e+09 -23.859619 99.118771 18.256793
5.171000e+09 -24.068614 99.034834 18.234070
5.171250e+09 -24.197620 98.743689 18.411007
5.171500e+09 -24.153229 98.300652 19.252379
5.171750e+09 -24.036551 98.965921 18.838500
5.172000e+09 -23.887010 97.164282 18.041255
5.172250e+09 -23.983475 99.028089 17.983803
5.172500e+09 -23.858917 92.674093 18.514480
5.172750e+09 -24.018753 92.585102 19.457473
5.173000e+09 -23.980794 98.981148 18.524792
5.173250e+09 -24.111940 98.390254 18.816077
5.173500e+09 -23.795256 96.498852 18.191859
5.173750e+09 -24.016567 95.056377 18.727358
5.174000e+09 -23.985823 98.929215 18.172014
5.174250e+09 -23.777327 85.165975 17.589598
5.174500e+09 -23.959759 96.315500 18.506403
5.174750e+09 -23.690295 42.686855 17.853312
5.175000e+09 -23.903009 93.815379 18.322499
5.175250e+09 -23.929016 98.924505 17.867178
5.175500e+09 -23.778166 98.730853 17.564971
5.175750e+09 -24.116198 98.689951 17.209799
5.176000e+09 -24.121969 98.466033 17.397779
5.176250e+09 -24.048477 98.766408 17.315394
5.176500e+09 -23.865103 97.872054 16.931296
5.176750e+09 -24.033810 98.639302 17.456349
5.177000e+09 -24.165753 98.532772 16.756261
5.177250e+09 -23.927643 98.184188 17.966821
5.177500e+09 -23.884583 98.733746 17.181241
5.177750e+09 -23.886929 98.710209 16.677431
5.178000e+09 -23.990025 98.704451 16.700280
5.178250e+09 -23.867007 68.040801 16.214123
5.178500e+09 -23.828884 98.164066 17.492210
5.178750e+09 -23.841673 98.110008 18.143411
5.179000e+09 -24.136639 96.691237 17.727421
5.179250e+09 -23.954429 98.534821 17.048045
5.179500e+09 -23.793834 98.321033 17.150342
5.179750e+09 -24.183872 98.136523 17.018968
5.180000e+09 -24.185475 95.744252 17.582519
5.180250e+09 -23.817490 98.503126 16.653870
5.180500e+09 -23.818562 98.423321 16.665907
5.180750e+09 -23.939685 96.030952 16.270266
5.181000e+09 -23.840715 90.666862 16.315478
5.181250e+09 -24.007962 87.238540 16.378939
5.181500e+09 -23.826269 97.463372 16.158054
5.181750e+09 -23.848637 95.650710 16.896482
5.182000e+09 -24.174722 98.020394 16.387320
5.182250e+09 -23.951027 98.312373 16.232609
5.182500e+09 -24.153429 93.991063 15.920700
5.182750e+09 -23.907090 98.274722 15.439951
5.183000e+09 -24.020612 97.692155 16.594569
5.183250e+09 -24.092412 95.232679 17.264418
5.183500e+09 -24.249142 97.732633 16.204473
5.183750e+09 -23.975154 98.239347 15.515042
5.184000e+09 -24.147842 95.013036 16.493914
5.184250e+09 -23.950173 97.714915 15.377077
5.184500e+09 -24.002671 94.644415 16.430126
5.184750e+09 -23.922898 89.156726 15.663088
5.185000e+09 -24.040740 96.218030 15.076062
5.185250e+09 -24.147106 97.454669 15.833699
5.185500e+09 -24.221911 98.016469 15.232884
5.185750e+09 -24.103810 98.099361 14.566997
5.186000e+09 -24.361937 97.827920 14.808103
5.186250e+09 -24.385264 97.422912 15.698289
5.186500e+09 -24.203064 97.979593 14.653871
5.186750e+09 -24.216853 92.484859 14.264298
5.187000e+09 -24.423347 95.453536 14.492239
5.187250e+09 -24.255789 97.300425 15.060031
5.187500e+09 -24.072699 93.611574 15.636543
5.187750e+09 -24.069068 83.410099 14.093911
5.188000e+09 -24.476210 96.971278 14.972834
5.188250e+09 -24.392406 97.752259 14.318590
5.188500e+09 -24.314778 97.441426 14.000842
5.188750e+09 -24.336036 97.785655 13.625559
5.189000e+09 -24.332750 95.379514 14.644476
5.189250e+09 -24.413394 97.663852 14.042209
5.189500e+09 -24.201741 97.187554 14.645430
5.189750e+09 -24.316787 95.050285 15.310697
5.190000e+09 -24.547433 97.560342 14.231654
5.190250e+09 -24.605862 97.037916 14.389894
5.190500e+09 -24.598332 76.209683 14.080981
5.190750e+09 -24.442114 95.341675 14.679015
5.191000e+09 -24.438084 90.538715 14.857494
5.191250e+09 -24.488052 94.353985 15.123631
5.191500e+09 -24.582540 82.582754 14.494384
5.191750e+09 -24.504343 97.319443 13.818948
5.192000e+09 -24.478652 82.718054 12.988856
5.192250e+09 -24.391635 96.945688 13.929185
5.192500e+09 -24.536563 96.723572 14.239424
5.192750e+09 -24.719554 91.541236 14.313089
5.193000e+09 -24.631675 94.166622 14.889336
5.193250e+09 -24.456613 97.037327 13.915362
5.193500e+09 -24.803012 96.588567 14.192793
5.193750e+09 -24.751879 97.072942 13.668917
5.194000e+09 -24.867152 96.797130 13.714759
5.194250e+09 -24.872903 90.812630 13.717404
5.194500e+09 -24.645508 96.464741 14.196421
5.194750e+09 -24.718713 87.640734 13.343540
5.195000e+09 -24.699653 97.008723 13.102449
5.195250e+09 -24.590141 96.581063 13.706601
5.195500e+09 -24.643807 96.432909 14.111569
5.195750e+09 -24.916109 63.320558 13.574893
5.196000e+09 -24.980305 96.581964 13.773293
5.196250e+09 -24.792456 94.537820 14.419953
5.196500e+09 -24.914934 96.795147 13.800107
5.196750e+09 -24.865401 96.852686 13.176564
5.197000e+09 -24.715835 94.104082 14.065410
5.197250e+09 -25.048162 96.171830 14.627282
5.197500e+09 -24.777130 96.648213 13.626475
5.197750e+09 -24.749807 96.545396 13.624961
5.198000e+09 -24.939247 81.523156 13.828726
5.198250e+09 -25.123136 96.123922 14.146254
5.198500e+09 -25.111058 95.889273 14.450878
5.198750e+09 -24.991673 96.589389 13.780253
5.199000e+09 -25.014541 96.496341 13.885645
5.199250e+09 -24.941009 96.536119 13.704335
5.199500e+09 -24.850297 96.036765 14.236867
5.199750e+09 -25.013285 84.774525 13.984311
5.200000e+09 -25.081797 93.468023 13.913451
5.200250e+09 -24.993838 95.843896 14.375107
5.200500e+09 -25.195916 96.259224 13.726885
5.200750e+09 -24.972290 94.456126 14.718337
5.201000e+09 -25.202681 96.081171 14.129664
5.201250e+09 -25.241658 89.935281 14.118993
5.201500e+09 -24.915539 82.736045 14.099247
5.201750e+09 -25.219818 94.330916 14.832738
5.202000e+09 -25.027391 90.992285 14.105399
5.202250e+09 -25.230959 96.118539 14.259286
5.202500e+09 -25.001126 96.055955 14.086506
5.202750e+09 -24.993141 96.063556 14.233182
5.203000e+09 -25.132548 84.200605 13.886496
5.203250e+09 -25.243047 84.460738 14.404187
5.203500e+09 -24.976061 70.970901 14.373598
5.203750e+09 -25.350673 95.660112 14.917995
5.204000e+09 -25.110126 95.992016 13.819847
5.204250e+09 -25.219138 95.478539 14.828300
5.204500e+09 -25.175716 87.178379 13.925647
5.204750e+09 -25.129925 96.028127 13.781326
5.205000e+09 -25.273091 95.386323 15.017605
5.205250e+09 -25.421870 84.145014 15.236369
5.205500e+09 -25.072082 91.075378 14.462838
5.205750e+09 -25.343291 95.977090 14.105029
5.206000e+09 -25.442627 95.560838 14.368174
5.206250e+09 -25.316815 95.281003 14.919561
5.206500e+09 -25.252023 85.409537 15.437223
5.206750e+09 -25.566765 89.350624 12.204111
5.207000e+09 -25.411861 95.754130 12.718150
5.207250e+09 -25.223603 93.837001 13.482159
5.207500e+09 -25.417756 95.675407 14.466019
5.207750e+09 -25.504260 89.072847 14.508257
5.208000e+09 -25.492889 95.569746 14.512263
5.208250e+09 -25.189404 95.286490 15.245685
5.208500e+09 -25.444498 88.808726 14.280387
5.208750e+09 -25.482855 85.082830 14.106715
5.209000e+09 -25.209966 95.517586 13.911443
5.209250e+09 -25.226891 95.264983 14.513385
5.209500e+09 -25.466563 94.518453 14.403279
5.209750e+09 -25.310594 92.797989 15.120743
5.210000e+09 -25.429765 78.072819 15.533703
5.210250e+09 -25.294678 95.424536 14.438483
5.210500e+09 -25.337773 94.649320 14.361433
5.210750e+09 -25.611897 95.129548 14.851915
5.211000e+09 -25.285419 86.278996 14.370040
5.211250e+09 -25.620509 93.342983 14.375195
5.211500e+09 -25.304348 95.229532 14.515700
