! S21 sweep bladeRF - TX0=40 db | RX0=50 db | RX1=50 db - 2025-12-11T14:50:51
# Frequency [MHz], |S21| [db], |Mag_meas| [db], Phase [deg]
5.100000e+09 1.818822 129.724004 -69.720243
5.100250e+09 1.991309 129.661796 -69.636379
5.100500e+09 2.003576 130.170796 -67.018461
5.100750e+09 2.224323 129.999708 -68.594208
5.101000e+09 1.948996 130.058568 -65.860107
5.101250e+09 1.763423 129.943819 -65.824061
5.101500e+09 1.803313 129.877971 -67.852810
5.101750e+09 2.075039 129.688569 -69.736547
5.102000e+09 2.569979 130.195159 -67.611702
5.102250e+09 2.109733 129.721867 -69.522782
5.102500e+09 2.363365 130.125802 -66.419081
5.102750e+09 2.385573 130.051126 -66.645163
5.103000e+09 2.004906 130.044485 -65.152801
5.103250e+09 2.358992 129.887211 -67.676344
5.103500e+09 1.827746 129.831167 -66.282242
5.103750e+09 1.897466 130.040455 -64.636809
5.104000e+09 2.188027 130.226677 -63.916207
5.104250e+09 2.441281 130.564433 -65.711786
5.104500e+09 2.559553 130.199146 -67.678324
5.104750e+09 2.033030 130.127447 -67.081004
5.105000e+09 2.305992 130.126260 -66.129600
5.105250e+09 2.136535 130.177771 -66.309832
5.105500e+09 2.170080 130.200756 -66.853160
5.105750e+09 2.460926 130.021933 -67.836091
5.106000e+09 1.835892 129.820805 -67.884399
5.106250e+09 2.250628 129.716285 -69.337831
5.106500e+09 1.772171 129.821366 -67.187368
5.106750e+09 2.245743 129.780482 -69.919077
5.107000e+09 1.809963 129.746788 -68.951344
5.107250e+09 2.226326 129.709090 -70.527995
5.107500e+09 2.121528 129.712285 -68.874876
5.107750e+09 2.698720 130.208512 -68.145037
5.108000e+09 2.009397 129.897362 -68.487040
5.108250e+09 2.083233 130.087703 -67.671519
5.108500e+09 2.481387 130.041854 -69.853912
5.108750e+09 2.416936 130.101049 -69.941511
5.109000e+09 2.168606 130.104866 -68.423792
5.109250e+09 2.550489 130.565553 -69.667279
5.109500e+09 2.412525 129.880944 -69.825064
5.109750e+09 2.076225 129.940689 -68.866310
5.110000e+09 2.399578 129.745987 -69.881371
5.110250e+09 2.361833 130.248573 -65.869247
5.110500e+09 2.588356 129.945690 -68.998227
5.110750e+09 2.382504 129.860613 -68.528341
5.111000e+09 2.740163 130.020539 -68.453863
5.111250e+09 2.834586 130.422294 -69.581651
5.111500e+09 2.297349 130.178585 -67.448127
5.111750e+09 2.406583 130.313529 -66.762675
5.112000e+09 2.892050 130.433021 -64.298240
5.112250e+09 2.739258 130.468471 -63.086747
5.112500e+09 2.794449 130.307218 -64.665436
5.112750e+09 2.671958 130.494077 -66.295661
5.113000e+09 2.384083 130.252641 -65.891200
5.113250e+09 2.752997 130.125237 -66.862634
5.113500e+09 2.459990 129.771900 -67.916596
5.113750e+09 2.312329 129.725468 -67.959997
5.114000e+09 2.303877 129.871061 -69.372166
5.114250e+09 2.098944 129.800541 -69.557841
5.114500e+09 2.177761 129.931646 -68.897439
5.114750e+09 2.455742 130.258601 -67.205450
5.115000e+09 2.467007 130.271497 -68.397697
5.115250e+09 2.497677 130.246345 -67.495398
5.115500e+09 2.738028 130.214956 -66.862332
5.115750e+09 2.841978 130.157822 -67.207198
5.116000e+09 2.651576 129.727246 -69.678516
5.116250e+09 2.203158 129.834756 -67.783371
5.116500e+09 2.595878 129.844543 -68.361482
5.116750e+09 2.392020 129.714256 -70.633485
5.117000e+09 2.630271 130.287082 -66.598339
5.117250e+09 3.062536 130.457778 -66.370615
5.117500e+09 2.820494 130.483093 -65.783934
5.117750e+09 2.745982 130.163147 -68.290142
5.118000e+09 2.506698 130.149977 -67.211549
5.118250e+09 2.725190 129.824049 -70.794758
5.118500e+09 2.815094 130.250350 -67.051863
5.118750e+09 2.693171 130.306363 -66.775698
5.119000e+09 2.806536 130.299463 -66.047341
5.119250e+09 3.043103 130.226827 -69.542124
5.119500e+09 3.041014 130.047375 -69.915604
5.119750e+09 2.838468 129.784700 -71.194498
5.120000e+09 3.210091 130.216246 -68.428352
5.120250e+09 3.046355 130.416873 -69.250415
5.120500e+09 2.853540 130.210993 -69.709758
5.120750e+09 2.952697 130.153171 -71.295278
5.121000e+09 2.744199 130.049119 -71.474691
5.121250e+09 2.904677 130.068258 -69.948919
5.121500e+09 2.710799 130.018192 -70.690810
5.121750e+09 2.461856 129.805501 -71.268184
5.122000e+09 2.803697 129.738020 -73.052862
5.122250e+09 3.005563 130.052516 -72.258747
5.122500e+09 2.771366 129.698508 -73.546978
5.122750e+09 3.465734 130.400303 -68.560628
5.123000e+09 3.144908 130.113743 -70.806350
5.123250e+09 2.922109 130.020031 -69.743376
5.123500e+09 2.882186 130.000446 -71.299376
5.123750e+09 2.771464 129.764691 -70.361757
5.124000e+09 2.699657 129.831765 -69.418277
5.124250e+09 2.717620 130.128120 -68.361597
5.124500e+09 2.920329 130.207567 -67.468790
5.124750e+09 2.877303 130.233453 -68.371428
5.125000e+09 3.227805 130.426697 -70.245822
5.125250e+09 3.632502 130.396614 -69.980397
5.125500e+09 3.008726 130.276121 -70.097577
5.125750e+09 3.117502 130.161273 -69.382399
5.126000e+09 3.420969 130.580086 -70.190795
5.126250e+09 3.392522 130.425385 -68.946279
5.126500e+09 3.229523 130.110622 -72.349136
5.126750e+09 2.908376 130.070091 -69.998928
5.127000e+09 3.036704 130.203199 -68.512452
5.127250e+09 3.517377 130.475464 -66.125696
5.127500e+09 3.187996 130.437156 -71.062074
5.127750e+09 3.470597 130.099469 -71.579181
5.128000e+09 2.670099 129.827771 -71.660537
5.128250e+09 2.711007 129.945820 -70.839964
5.128500e+09 3.172387 129.882122 -73.363802
5.128750e+09 3.679255 130.403164 -71.450062
5.129000e+09 3.168958 130.354885 -69.188380
5.129250e+09 3.234112 130.396212 -68.316921
5.129500e+09 3.254883 130.235243 -70.775914
5.129750e+09 3.429480 129.989255 -72.885034
5.130000e+09 2.884283 130.014752 -71.578583
5.130250e+09 2.858421 129.953178 -69.766531
5.130500e+09 3.171481 130.266496 -68.505865
5.130750e+09 3.215282 130.345510 -69.136345
5.131000e+09 3.778348 130.439740 -71.376430
5.131250e+09 2.997699 129.761563 -73.749479
5.131500e+09 3.780034 130.419470 -70.898981
5.131750e+09 3.308333 130.260790 -71.756608
5.132000e+09 3.713870 130.545815 -72.068905
5.132250e+09 3.180016 130.217214 -68.762991
5.132500e+09 3.385337 130.212866 -68.680427
5.132750e+09 3.672171 130.098566 -71.415378
5.133000e+09 3.200248 129.706751 -74.701474
5.133250e+09 3.690036 130.165660 -71.579092
5.133500e+09 3.533885 129.923032 -73.042315
5.133750e+09 2.821365 129.854841 -71.235541
5.134000e+09 3.412372 130.462131 -69.565877
5.134250e+09 3.700126 130.394931 -72.917251
5.134500e+09 3.693870 130.129155 -71.969384
5.134750e+09 3.172770 130.114981 -72.382604
5.135000e+09 3.273406 130.261775 -70.248616
5.135250e+09 3.817675 130.125234 -72.671464
5.135500e+09 2.952814 129.892092 -70.542378
5.135750e+09 3.442614 129.824237 -74.306465
5.136000e+09 3.708020 130.162531 -74.211090
5.136250e+09 3.189278 130.118966 -72.973515
5.136500e+09 3.622450 130.016789 -72.228921
5.136750e+09 3.163904 130.109038 -71.195704
5.137000e+09 3.681287 130.000165 -72.322383
5.137250e+09 3.560441 130.035893 -75.053616
5.137500e+09 3.342456 130.065988 -71.509086
5.137750e+09 3.761753 130.146731 -71.551577
5.138000e+09 3.605490 130.121222 -74.442264
5.138250e+09 3.568823 130.442352 -71.223837
5.138500e+09 3.601620 130.488505 -71.655747
5.138750e+09 3.960802 130.328447 -73.385677
5.139000e+09 3.637405 129.873083 -73.873426
5.139250e+09 3.474565 129.702381 -74.062853
5.139500e+09 3.845443 130.517574 -75.718159
5.139750e+09 3.471412 130.304187 -71.226181
5.140000e+09 3.575502 130.389831 -71.608096
5.140250e+09 4.243246 130.418396 -70.349682
5.140500e+09 3.787187 130.173987 -74.444688
5.140750e+09 3.288124 129.831674 -76.013556
5.141000e+09 3.310600 130.049247 -74.693390
5.141250e+09 3.487314 129.871152 -72.799017
5.141500e+09 3.752206 130.056656 -72.521708
5.141750e+09 3.786729 130.508220 -69.411819
5.142000e+09 4.295188 130.341986 -72.970645
5.142250e+09 3.769423 130.058710 -75.842750
5.142500e+09 3.415409 129.745380 -77.704400
5.142750e+09 3.640009 130.305299 -71.898137
5.143000e+09 4.180384 130.426872 -71.066256
5.143250e+09 3.746132 130.383765 -72.619935
5.143500e+09 4.336778 130.401852 -70.774966
5.143750e+09 4.196360 130.501063 -74.031902
5.144000e+09 3.983632 130.065322 -73.173415
5.144250e+09 3.313707 129.942105 -73.901723
5.144500e+09 3.590064 130.123853 -75.180390
5.144750e+09 3.610629 130.208993 -74.829100
5.145000e+09 3.565762 130.207454 -73.481183
5.145250e+09 4.173258 130.186923 -73.610265
5.145500e+09 3.540719 130.138516 -73.656831
5.145750e+09 4.123769 130.141136 -72.968030
5.146000e+09 3.855505 130.436702 -72.440206
5.146250e+09 4.465731 130.394309 -71.417718
5.146500e+09 3.846270 130.416662 -71.706395
5.146750e+09 3.821513 130.273239 -75.955283
5.147000e+09 3.886064 130.165300 -77.086418
5.147250e+09 3.672498 130.117112 -76.445159
5.147500e+09 4.142585 130.028902 -78.014407
5.147750e+09 3.902391 129.724392 -77.773101
5.148000e+09 4.309797 130.415762 -75.084356
5.148250e+09 4.429583 130.502644 -75.784498
5.148500e+09 3.762649 130.244228 -73.627235
5.148750e+09 3.976351 130.156499 -76.688440
5.149000e+09 4.222722 129.986447 -76.867981
5.149250e+09 4.796917 130.568420 -76.571259
5.149500e+09 4.182005 130.200286 -73.294842
5.149750e+09 4.563197 130.327448 -75.158452
5.150000e+09 3.802901 130.184017 -75.672760
5.150250e+09 4.017202 130.179180 -77.305668
5.150500e+09 3.924911 130.190091 -74.031648
5.150750e+09 4.316326 130.060831 -75.468895
5.151000e+09 4.011896 129.730020 -76.794554
5.151250e+09 4.362529 130.092335 -77.893795
5.151500e+09 3.800617 130.166219 -75.231022
5.151750e+09 4.041666 130.313207 -73.311082
5.152000e+09 4.124331 130.419363 -72.434544
5.152250e+09 4.471871 130.431000 -71.680081
5.152500e+09 4.730795 130.441744 -72.451556
5.152750e+09 4.271798 130.416344 -72.030048
5.153000e+09 4.435483 130.415092 -75.368237
5.153250e+09 3.894977 130.188620 -76.438995
5.153500e+09 4.157392 130.263722 -78.513485
5.153750e+09 4.425303 130.034024 -77.259265
5.154000e+09 3.833278 130.097602 -75.341621
5.154250e+09 4.172553 130.264009 -78.259052
5.154500e+09 4.406372 130.280850 -79.442754
5.154750e+09 4.138924 129.859949 -76.897568
5.155000e+09 3.890646 129.764048 -80.660230
5.155250e+09 3.978989 129.826235 -76.542770
5.155500e+09 3.860374 130.035890 -77.376006
5.155750e+09 4.016312 130.202508 -76.312336
5.156000e+09 4.503120 130.180086 -75.499705
5.156250e+09 4.575274 130.443357 -73.029423
5.156500e+09 4.689167 130.203515 -75.931317
5.156750e+09 4.227017 130.163006 -74.864484
5.157000e+09 4.166708 130.320436 -74.576672
5.157250e+09 4.454598 130.092068 -80.435799
5.157500e+09 4.110456 130.159419 -75.918105
5.157750e+09 4.175118 130.296215 -75.424989
5.158000e+09 4.752917 130.451105 -73.267476
5.158250e+09 4.748800 130.328364 -74.611107
5.158500e+09 4.639323 130.268647 -79.804670
5.158750e+09 4.256459 130.228260 -76.040299
5.159000e+09 4.253219 130.222097 -78.941901
5.159250e+09 4.226171 130.212531 -79.426444
5.159500e+09 4.540122 130.106182 -81.800749
5.159750e+09 4.566664 130.072205 -77.944101
5.160000e+09 4.657691 130.028208 -78.653991
5.160250e+09 4.110353 130.083195 -76.890194
5.160500e+09 4.508150 130.471881 -77.325250
5.160750e+09 4.473998 130.472732 -78.786281
5.161000e+09 5.109613 130.406913 -75.313271
5.161250e+09 5.096249 130.392332 -78.043479
5.161500e+09 4.828914 130.172794 -78.236715
5.161750e+09 4.176838 129.811166 -82.358530
5.162000e+09 4.319754 130.002039 -77.849923
5.162250e+09 4.658987 130.116632 -77.128955
5.162500e+09 4.325736 130.190760 -79.649266
5.162750e+09 4.449764 130.378353 -78.735370
5.163000e+09 4.798002 130.086731 -82.340095
5.163250e+09 4.418068 130.156995 -77.648626
5.163500e+09 4.424523 130.318541 -77.566394
5.163750e+09 5.209857 130.386501 -79.761716
5.164000e+09 4.709054 129.887686 -81.642606
5.164250e+09 5.130237 130.273501 -80.263966
5.164500e+09 4.611011 129.767213 -81.427747
5.164750e+09 4.229653 129.590100 -84.618748
5.165000e+09 4.798385 130.300535 -77.996754
5.165250e+09 4.649450 130.455017 -80.128443
5.165500e+09 4.800764 130.215070 -77.145831
5.165750e+09 4.819433 130.491645 -79.551756
5.166000e+09 5.212114 130.417755 -76.404242
5.166250e+09 4.875659 130.407769 -75.517573
5.166500e+09 5.156979 130.277009 -79.773047
5.166750e+09 4.714792 130.169905 -78.042666
5.167000e+09 4.517383 130.233990 -79.766323
5.167250e+09 4.660128 130.102191 -83.956589
5.167500e+09 4.645018 129.969160 -85.127153
5.167750e+09 4.440437 130.006662 -80.252731
5.168000e+09 4.413379 129.833530 -83.438734
5.168250e+09 4.661813 129.695625 -85.304817
5.168500e+09 5.278254 130.303434 -81.741360
5.168750e+09 4.610729 130.056811 -83.886693
5.169000e+09 4.534836 130.041493 -84.427750
5.169250e+09 4.730722 129.749613 -84.990914
5.169500e+09 5.517181 130.581239 -83.981295
5.169750e+09 4.682212 130.124431 -84.289018
5.170000e+09 4.845074 129.847011 -85.630729
5.170250e+09 4.809428 130.189439 -84.683538
5.170500e+09 4.880394 129.840041 -85.133074
5.170750e+09 4.279635 129.829339 -81.387447
5.171000e+09 4.790791 130.197127 -78.823072
5.171250e+09 4.822498 130.370872 -78.985927
5.171500e+09 4.858737 130.423011 -80.835453
5.171750e+09 5.011721 130.427467 -78.667208
5.172000e+09 4.927136 130.374527 -82.783602
5.172250e+09 4.826372 130.089977 -85.071454
5.172500e+09 4.573353 130.087559 -82.532934
5.172750e+09 5.041690 130.022992 -84.827551
5.173000e+09 4.741845 129.635183 -86.579612
5.173250e+09 4.424517 129.803301 -86.144981
5.173500e+09 5.506057 130.432292 -84.082223
5.173750e+09 5.095376 129.858462 -85.121331
5.174000e+09 4.551563 129.731779 -85.918851
5.174250e+09 4.599861 129.940314 -82.360110
5.174500e+09 4.891828 129.818365 -84.863730
5.174750e+09 5.428104 130.303058 -82.396503
5.175000e+09 5.229925 130.027875 -85.036863
5.175250e+09 5.074834 130.100309 -82.617916
5.175500e+09 5.009775 130.091053 -84.657107
5.175750e+09 5.122111 130.100955 -83.287115
5.176000e+09 5.201401 130.526330 -83.949099
5.176250e+09 5.044688 130.408256 -84.416513
5.176500e+09 5.274621 130.149050 -83.449838
5.176750e+09 4.989916 130.165512 -82.534017
5.177000e+09 5.328940 130.089191 -84.452080
5.177250e+09 5.125606 129.766429 -85.228176
5.177500e+09 4.706304 129.802737 -84.767926
5.177750e+09 4.723401 129.772470 -86.314241
5.178000e+09 5.321614 130.068722 -85.923885
5.178250e+09 4.986299 129.973409 -83.479643
5.178500e+09 5.045307 130.108866 -85.155704
5.178750e+09 5.163537 130.165668 -83.521126
5.179000e+09 5.405606 130.270867 -82.919955
5.179250e+09 5.298702 130.225885 -85.019373
5.179500e+09 5.368577 130.406832 -82.339382
5.179750e+09 5.234373 130.280413 -84.477450
5.180000e+09 5.359981 129.986521 -87.430717
5.180250e+09 5.174079 130.127563 -84.773676
5.180500e+09 5.299270 130.244862 -86.338752
5.180750e+09 5.200545 130.227852 -84.748661
5.181000e+09 5.504486 130.376610 -86.727949
5.181250e+09 5.429460 130.065433 -88.526665
5.181500e+09 5.310266 130.151709 -88.854461
5.181750e+09 5.170855 129.715792 -89.947476
5.182000e+09 5.717455 130.337851 -87.469734
5.182250e+09 5.742945 130.176584 -87.947660
5.182500e+09 5.868090 130.438055 -84.889021
5.182750e+09 6.019733 130.534330 -83.395150
5.183000e+09 5.683252 130.515995 -87.010133
5.183250e+09 5.507725 130.054698 -88.687106
5.183500e+09 5.363897 130.095515 -89.406198
5.183750e+09 5.227552 130.086790 -88.857610
5.184000e+09 5.366808 129.806922 -89.259660
5.184250e+09 5.287194 129.915473 -86.760392
5.184500e+09 5.574739 130.396657 -84.979007
5.184750e+09 5.817850 130.204991 -86.972305
5.185000e+09 5.573402 129.845857 -89.843345
5.185250e+09 5.945236 130.332728 -86.179048
5.185500e+09 5.646881 130.339113 -85.086182
5.185750e+09 6.043079 130.402832 -85.938355
5.186000e+09 5.873623 130.274128 -85.598801
5.186250e+09 5.868679 130.483968 -83.268861
5.186500e+09 5.471205 130.227923 -86.361531
5.186750e+09 5.879579 130.458098 -83.986779
5.187000e+09 5.484725 130.096457 -88.710668
5.187250e+09 5.694670 130.117170 -87.787261
5.187500e+09 5.355792 129.910135 -89.289572
5.187750e+09 5.121662 129.781828 -89.714800
5.188000e+09 5.484402 129.829370 -89.345109
5.188250e+09 5.564105 130.094604 -87.597309
5.188500e+09 5.610907 130.265563 -86.781938
5.188750e+09 5.884499 130.481509 -84.834010
5.189000e+09 5.805521 130.429445 -85.772405
5.189250e+09 5.883006 130.417302 -86.932357
5.189500e+09 6.195038 130.375030 -88.925726
5.189750e+09 5.854122 130.217448 -90.535437
5.190000e+09 5.590451 130.140854 -89.742811
5.190250e+09 5.969412 130.574635 -90.941724
5.190500e+09 5.838423 130.373278 -87.423518
5.190750e+09 6.245640 130.495098 -86.352324
5.191000e+09 6.254593 130.388392 -92.370017
5.191250e+09 5.761301 130.182453 -89.656863
5.191500e+09 6.241608 130.323680 -89.574002
5.191750e+09 6.357024 130.407373 -87.297762
5.192000e+09 6.465230 130.382199 -87.629602
5.192250e+09 6.246989 130.324427 -90.786211
5.192500e+09 6.246008 130.424957 -88.909823
5.192750e+09 6.081450 130.452711 -88.546790
5.193000e+09 5.999811 130.445185 -87.635523
5.193250e+09 6.175797 130.635134 -91.083574
5.193500e+09 5.920456 130.239766 -90.072278
5.193750e+09 6.160482 130.172738 -89.878476
5.194000e+09 6.331413 130.451914 -87.639794
5.194250e+09 6.527404 130.397623 -87.958133
5.194500e+09 6.160558 130.167336 -91.736658
5.194750e+09 6.502794 130.481283 -87.968916
5.195000e+09 6.481730 130.249403 -89.928680
5.195250e+09 6.194582 130.120494 -92.370530
5.195500e+09 5.990020 130.168019 -92.425064
5.195750e+09 6.110333 130.203596 -90.489668
5.196000e+09 6.319420 130.323496 -92.975686
5.196250e+09 6.292925 130.046282 -92.593515
5.196500e+09 6.267580 130.053563 -91.803077
5.196750e+09 6.156279 130.238526 -90.451125
5.197000e+09 6.007461 130.154014 -92.444003
5.197250e+09 5.805941 129.744960 -95.193844
5.197500e+09 5.674520 129.789761 -93.221364
5.197750e+09 6.119114 130.031164 -95.240266
5.198000e+09 6.147293 130.096922 -92.110633
5.198250e+09 6.130997 130.243240 -91.699425
5.198500e+09 6.281351 130.393968 -92.916188
5.198750e+09 6.289376 130.422702 -91.604812
5.199000e+09 6.366781 130.332449 -93.410299
5.199250e+09 6.491528 130.548719 -90.000704
5.199500e+09 6.711103 130.399565 -90.676880
5.199750e+09 6.519369 130.464667 -91.572364
5.200000e+09 6.162119 130.155348 -94.717219
5.200250e+09 5.829729 129.881067 -94.142477
5.200500e+09 5.798287 129.856598 -94.643855
5.200750e+09 6.012402 130.004914 -95.923230
5.201000e+09 6.222408 130.066285 -93.674381
5.201250e+09 6.316901 129.845101 -95.854603
5.201500e+09 6.246526 129.820462 -94.220771
5.201750e+09 6.079842 129.726827 -96.735036
5.202000e+09 5.946474 129.686270 -97.641732
5.202250e+09 6.566397 130.161097 -96.895459
5.202500e+09 6.446031 129.857964 -97.040089
5.202750e+09 6.376466 129.938070 -94.815968
5.203000e+09 6.695783 130.115716 -94.279229
5.203250e+09 6.355157 130.071617 -95.589277
5.203500e+09 5.994559 129.747047 -97.506855
5.203750e+09 6.072297 129.629835 -99.191984
5.204000e+09 6.900564 130.459856 -92.684043
5.204250e+09 6.770784 130.149212 -95.370285
5.204500e+09 6.906289 130.227262 -94.244194
5.204750e+09 6.774183 130.413530 -93.695544
5.205000e+09 6.613507 130.348608 -94.325927
5.205250e+09 6.542889 130.343660 -94.204455
5.205500e+09 6.817455 130.403559 -94.441062
5.205750e+09 6.746242 130.377353 -93.799601
5.206000e+09 6.868508 130.353804 -95.283465
5.206250e+09 6.655765 130.284855 -95.367923
5.206500e+09 6.512543 130.237425 -95.702055
5.206750e+09 6.593405 130.117737 -98.432893
5.207000e+09 6.484605 130.111712 -97.092848
5.207250e+09 6.498569 129.830683 -98.981741
5.207500e+09 6.385543 129.696726 -100.747686
5.207750e+09 6.922505 130.450113 -95.040344
5.208000e+09 6.787638 130.360146 -95.905654
5.208250e+09 6.812389 130.370631 -94.964387
5.208500e+09 7.041497 130.241646 -96.518989
5.208750e+09 7.057080 130.154820 -96.835140
5.209000e+09 6.585479 129.915410 -98.833347
5.209250e+09 6.625512 129.773653 -98.632720
5.209500e+09 6.534812 129.913058 -96.893115
5.209750e+09 6.882127 130.330943 -95.174410
5.210000e+09 6.908254 130.409592 -95.419058
5.210250e+09 7.244117 130.412330 -97.056421
5.210500e+09 7.097776 130.343120 -95.076476
5.210750e+09 7.516728 130.521474 -97.551488
5.211000e+09 7.071788 130.366621 -95.314756
5.211250e+09 7.107498 130.380855 -96.077733
5.211500e+09 7.111731 130.454871 -96.163153
5.211750e+09 6.869626 130.092197 -100.142703
5.212000e+09 6.642820 129.686298 -102.521739
5.212250e+09 7.300009 130.335859 -99.743036
5.212500e+09 6.845457 130.048362 -100.939871
